%OpenBCI Raw EEG Data
%
%Sample Rate = 200.0 Hz
%First Column = SampleIndex
%Last Column = Timestamp 
%Other Columns = EEG data in microvolts followed by Accel Data (in G) interleaved with Aux Data
0, -189.87, -100.68, 698.13, 659.63, 0.00, 0.00, 0.00, 14:27:18.765
1, -184.21, -100.26, 701.15, 662.86, 0.00, 0.00, 0.00, 14:27:18.767
2, -180.81, -94.97, 698.85, 662.02, 0.00, 0.00, 0.00, 14:27:18.768
3, -181.88, -97.78, 710.13, 668.87, 0.00, 0.00, 0.00, 14:27:18.793
4, -194.51, -107.65, 706.12, 660.64, 0.00, 0.00, 0.00, 14:27:18.794
5, -174.05, -91.08, 704.92, 669.83, 0.00, 0.00, 0.00, 14:27:18.795
6, -172.85, -92.49, 696.75, 657.08, 0.00, 0.00, 0.00, 14:27:18.796
7, -191.73, -111.78, 700.04, 654.33, 0.00, 0.00, 0.00, 14:27:18.798
8, -184.07, -98.20, 713.60, 669.88, 0.00, 0.00, 0.00, 14:27:18.802
9, -182.97, -102.03, 706.98, 667.61, 0.00, 0.00, 0.00, 14:27:18.827
10, -184.94, -100.03, 705.70, 660.34, 0.00, 0.00, 0.00, 14:27:18.828
11, -182.46, -100.03, 699.98, 651.78, 0.00, 0.00, 0.00, 14:27:18.828
12, -183.39, -103.47, 709.94, 660.40, 0.00, 0.00, 0.00, 14:27:18.829
13, -188.17, -102.36, 713.17, 663.54, 0.00, 0.00, 0.00, 14:27:18.830
14, -190.18, -108.17, 709.97, 664.34, 0.00, 0.00, 0.00, 14:27:18.831
15, -187.16, -104.91, 710.48, 663.30, 0.00, 0.00, 0.00, 14:27:18.853
16, -185.52, -100.96, 714.28, 670.77, 0.00, 0.00, 0.00, 14:27:18.854
17, -182.53, -105.75, 709.31, 663.14, 0.00, 0.00, 0.00, 14:27:18.854
18, -183.60, -101.47, 715.26, 670.53, 0.00, 0.00, 0.00, 14:27:18.855
19, -187.79, -101.59, 718.58, 674.18, 0.00, 0.00, 0.00, 14:27:18.855
20, -184.20, -99.35, 706.10, 662.78, 0.00, 0.00, 0.00, 14:27:18.856
21, -194.88, -108.06, 702.66, 655.96, 0.00, 0.00, 0.00, 14:27:18.883
22, -188.03, -102.64, 719.18, 670.47, 0.00, 0.00, 0.00, 14:27:18.883
23, -193.42, -113.53, 705.38, 656.98, 0.00, 0.00, 0.00, 14:27:18.883
24, -189.47, -105.67, 691.53, 650.75, 0.00, 0.00, 0.00, 14:27:18.884
25, -183.97, -104.26, 698.35, 652.22, 0.00, 0.00, 0.00, 14:27:18.884
26, -191.66, -110.34, 703.47, 665.62, 0.00, 0.00, 0.00, 14:27:18.884
27, -186.54, -105.31, 710.58, 674.86, 0.00, 0.00, 0.00, 14:27:18.913
28, -180.17, -103.58, 700.50, 669.89, 0.00, 0.00, 0.00, 14:27:18.913
29, -184.27, -106.90, 712.65, 675.37, 0.00, 0.00, 0.00, 14:27:18.914
30, -193.34, -111.96, 710.49, 682.16, 0.00, 0.00, 0.00, 14:27:18.914
31, -188.58, -108.40, 709.39, 684.88, 0.00, 0.00, 0.00, 14:27:18.914
32, -182.66, -96.22, 708.10, 678.48, 0.00, 0.00, 0.00, 14:27:18.915
33, -189.30, -105.29, 700.44, 669.53, 0.00, 0.00, 0.00, 14:27:18.943
34, -190.86, -106.30, 699.63, 672.04, 0.00, 0.00, 0.00, 14:27:18.943
35, -181.23, -95.54, 718.96, 686.37, 0.00, 0.00, 0.00, 14:27:18.944
36, -195.29, -110.05, 702.08, 672.67, 0.00, 0.00, 0.00, 14:27:18.944
37, -189.37, -112.80, 712.05, 680.47, 0.00, 0.00, 0.00, 14:27:18.944
38, -183.56, -97.15, 707.71, 679.22, 0.00, 0.00, 0.00, 14:27:18.944
39, -195.50, -104.42, 697.95, 670.24, 0.00, 0.00, 0.00, 14:27:19.003
40, -192.60, -110.20, 712.88, 683.05, 0.00, 0.00, 0.00, 14:27:19.003
41, -187.10, -101.91, 714.55, 688.61, 0.00, 0.00, 0.00, 14:27:19.003
42, -183.57, -102.12, 714.35, 677.24, 0.00, 0.00, 0.00, 14:27:19.004
43, -189.43, -103.20, 710.07, 672.81, 0.00, 0.00, 0.00, 14:27:19.004
44, -193.71, -102.72, 714.97, 672.75, 0.00, 0.00, 0.00, 14:27:19.005
45, -191.80, -97.04, 708.42, 671.64, 0.00, 0.00, 0.00, 14:27:19.005
46, -190.75, -103.41, 711.83, 676.10, 0.00, 0.00, 0.00, 14:27:19.005
47, -196.86, -107.78, 706.08, 672.12, 0.00, 0.00, 0.00, 14:27:19.033
48, -186.66, -97.40, 700.82, 667.16, 0.00, 0.00, 0.00, 14:27:19.034
49, -190.07, -103.89, 700.64, 666.11, 0.00, 0.00, 0.00, 14:27:19.034
50, -181.45, -103.68, 700.97, 662.16, 0.00, 0.00, 0.00, 14:27:19.035
51, -190.82, -111.22, 715.65, 667.48, 0.00, 0.00, 0.00, 14:27:19.035
52, -190.88, -104.08, 708.32, 661.50, 0.00, 0.00, 0.00, 14:27:19.035
53, -183.67, -98.84, 695.97, 656.05, 0.00, 0.00, 0.00, 14:27:19.036
54, -176.91, -92.23, 702.94, 662.21, 0.00, 0.00, 0.00, 14:27:19.036
55, -183.79, -93.73, 703.26, 661.59, 0.00, 0.00, 0.00, 14:27:19.063
56, -175.86, -91.46, 695.72, 652.10, 0.00, 0.00, 0.00, 14:27:19.063
57, -175.30, -90.41, 703.56, 669.60, 0.00, 0.00, 0.00, 14:27:19.063
58, -168.96, -89.90, 699.94, 659.70, 0.00, 0.00, 0.00, 14:27:19.064
59, -184.75, -96.43, 702.12, 650.78, 0.00, 0.00, 0.00, 14:27:19.064
60, -186.01, -100.32, 705.02, 658.59, 0.00, 0.00, 0.00, 14:27:19.064
61, -190.20, -100.73, 696.86, 664.09, 0.00, 0.00, 0.00, 14:27:19.065
62, -184.31, -97.95, 704.60, 666.25, 0.00, 0.00, 0.00, 14:27:19.065
63, -183.95, -99.09, 704.63, 660.92, 0.00, 0.00, 0.00, 14:27:19.093
64, -180.09, -101.78, 701.46, 654.04, 0.00, 0.00, 0.00, 14:27:19.093
65, -178.60, -95.44, 711.45, 669.92, 0.00, 0.00, 0.00, 14:27:19.094
66, -190.83, -104.03, 706.36, 660.92, 0.00, 0.00, 0.00, 14:27:19.094
67, -185.54, -105.05, 702.09, 665.73, 0.00, 0.00, 0.00, 14:27:19.094
68, -181.26, -93.17, 714.26, 672.05, 0.00, 0.00, 0.00, 14:27:19.095
69, -184.85, -98.20, 695.29, 656.58, 0.00, 0.00, 0.00, 14:27:19.126
70, -180.31, -96.58, 702.17, 659.75, 0.00, 0.00, 0.00, 14:27:19.127
71, -182.07, -94.13, 699.27, 656.87, 0.00, 0.00, 0.00, 14:27:19.127
72, -177.80, -90.78, 706.51, 654.63, 0.00, 0.00, 0.00, 14:27:19.128
73, -186.32, -101.61, 708.00, 665.88, 0.00, 0.00, 0.00, 14:27:19.128
74, -185.19, -96.77, 704.26, 654.60, 0.00, 0.00, 0.00, 14:27:19.129
75, -186.33, -96.59, 701.78, 646.64, 0.00, 0.00, 0.00, 14:27:19.154
76, -185.94, -95.52, 707.52, 656.99, 0.00, 0.00, 0.00, 14:27:19.154
77, -187.73, -100.69, 704.11, 655.31, 0.00, 0.00, 0.00, 14:27:19.155
78, -183.04, -100.39, 714.13, 661.72, 0.00, 0.00, 0.00, 14:27:19.155
79, -184.12, -97.34, 700.91, 658.45, 0.00, 0.00, 0.00, 14:27:19.155
80, -184.95, -104.64, 697.11, 655.67, 0.00, 0.00, 0.00, 14:27:19.156
81, -176.82, -97.41, 698.18, 657.91, 0.00, 0.00, 0.00, 14:27:19.183
82, -180.11, -97.32, 700.13, 653.67, 0.00, 0.00, 0.00, 14:27:19.184
83, -181.24, -96.24, 705.36, 656.21, 0.00, 0.00, 0.00, 14:27:19.184
84, -181.39, -99.44, 687.65, 640.29, 0.00, 0.00, 0.00, 14:27:19.185
85, -181.13, -96.81, 697.79, 655.19, 0.00, 0.00, 0.00, 14:27:19.187
86, -184.96, -97.98, 704.25, 662.37, 0.00, 0.00, 0.00, 14:27:19.188
87, -185.23, -108.06, 691.05, 647.65, 0.00, 0.00, 0.00, 14:27:19.214
88, -185.82, -95.44, 698.86, 651.89, 0.00, 0.00, 0.00, 14:27:19.214
89, -189.03, -104.74, 695.69, 654.10, 0.00, 0.00, 0.00, 14:27:19.215
90, -186.54, -99.24, 695.21, 654.40, 0.00, 0.00, 0.00, 14:27:19.215
91, -178.32, -95.23, 695.27, 654.88, 0.00, 0.00, 0.00, 14:27:19.215
92, -185.20, -101.13, 700.92, 660.95, 0.00, 0.00, 0.00, 14:27:19.215
93, -181.64, -97.24, 702.78, 658.23, 0.00, 0.00, 0.00, 14:27:19.243
94, -178.02, -94.40, 713.04, 669.72, 0.00, 0.00, 0.00, 14:27:19.243
95, -182.93, -95.69, 696.52, 656.37, 0.00, 0.00, 0.00, 14:27:19.244
96, -183.89, -94.10, 702.35, 661.01, 0.00, 0.00, 0.00, 14:27:19.244
97, -184.28, -97.78, 705.43, 662.05, 0.00, 0.00, 0.00, 14:27:19.244
98, -180.21, -101.40, 706.21, 669.41, 0.00, 0.00, 0.00, 14:27:19.244
99, -177.82, -100.60, 708.60, 675.18, 0.00, 0.00, 0.00, 14:27:19.273
100, -180.93, -97.76, 717.87, 671.65, 0.00, 0.00, 0.00, 14:27:19.273
101, -180.48, -100.99, 714.43, 667.19, 0.00, 0.00, 0.00, 14:27:19.274
102, -177.13, -96.32, 702.64, 655.94, 0.00, 0.00, 0.00, 14:27:19.274
103, -188.77, -104.25, 696.24, 652.92, 0.00, 0.00, 0.00, 14:27:19.274
104, -184.52, -100.39, 702.01, 668.18, 0.00, 0.00, 0.00, 14:27:19.275
105, -181.71, -95.43, 710.36, 662.61, 0.00, 0.00, 0.00, 14:27:19.303
106, -186.47, -100.33, 700.58, 656.90, 0.00, 0.00, 0.00, 14:27:19.303
107, -186.92, -100.51, 704.61, 653.49, 0.00, 0.00, 0.00, 14:27:19.304
108, -179.59, -90.82, 706.41, 662.76, 0.00, 0.00, 0.00, 14:27:19.304
109, -180.16, -98.33, 705.81, 657.56, 0.00, 0.00, 0.00, 14:27:19.304
110, -189.23, -101.02, 695.46, 654.50, 0.00, 0.00, 0.00, 14:27:19.305
111, -184.44, -92.65, 704.58, 663.87, 0.00, 0.00, 0.00, 14:27:19.333
112, -185.61, -96.00, 707.63, 662.97, 0.00, 0.00, 0.00, 14:27:19.333
113, -193.54, -100.76, 701.23, 663.81, 0.00, 0.00, 0.00, 14:27:19.334
114, -187.97, -103.54, 694.74, 649.74, 0.00, 0.00, 0.00, 14:27:19.334
115, -167.33, -86.58, 702.63, 661.02, 0.00, 0.00, 0.00, 14:27:19.335
116, -184.89, -99.17, 698.53, 649.50, 0.00, 0.00, 0.00, 14:27:19.335
117, -188.45, -99.71, 698.83, 656.56, 0.00, 0.00, 0.00, 14:27:19.363
118, -180.89, -91.81, 705.53, 664.82, 0.00, 0.00, 0.00, 14:27:19.363
119, -184.57, -98.34, 713.16, 671.55, 0.00, 0.00, 0.00, 14:27:19.364
120, -187.95, -99.92, 710.82, 664.43, 0.00, 0.00, 0.00, 14:27:19.365
121, -179.09, -97.92, 700.71, 656.41, 0.00, 0.00, 0.00, 14:27:19.393
122, -166.77, -89.19, 712.14, 665.29, 0.00, 0.00, 0.00, 14:27:19.394
123, -176.25, -97.74, 701.91, 663.17, 0.00, 0.00, 0.00, 14:27:19.394
124, -174.67, -96.82, 711.81, 666.25, 0.00, 0.00, 0.00, 14:27:19.395
125, -174.79, -94.13, 710.91, 677.50, 0.00, 0.00, 0.00, 14:27:19.395
126, -187.29, -105.05, 702.77, 654.10, 0.00, 0.00, 0.00, 14:27:19.396
127, -189.15, -101.13, 693.41, 649.22, 0.00, 0.00, 0.00, 14:27:19.396
128, -184.60, -94.37, 700.71, 653.35, 0.00, 0.00, 0.00, 14:27:19.396
129, -175.54, -95.78, 707.08, 661.78, 0.00, 0.00, 0.00, 14:27:19.423
130, -186.16, -106.19, 692.45, 650.77, 0.00, 0.00, 0.00, 14:27:19.423
131, -183.95, -103.65, 702.08, 662.71, 0.00, 0.00, 0.00, 14:27:19.424
132, -180.63, -101.70, 703.39, 659.18, 0.00, 0.00, 0.00, 14:27:19.424
133, -185.60, -105.59, 699.62, 648.65, 0.00, 0.00, 0.00, 14:27:19.453
134, -180.87, -94.91, 707.49, 664.59, 0.00, 0.00, 0.00, 14:27:19.453
135, -187.12, -99.19, 701.06, 662.41, 0.00, 0.00, 0.00, 14:27:19.454
136, -187.15, -95.60, 707.94, 665.73, 0.00, 0.00, 0.00, 14:27:19.454
137, -182.31, -91.15, 706.47, 658.07, 0.00, 0.00, 0.00, 14:27:19.454
138, -180.87, -95.96, 703.96, 658.19, 0.00, 0.00, 0.00, 14:27:19.455
139, -184.29, -102.97, 701.89, 664.98, 0.00, 0.00, 0.00, 14:27:19.455
140, -185.24, -103.05, 693.70, 650.20, 0.00, 0.00, 0.00, 14:27:19.456
141, -181.30, -100.48, 706.38, 660.94, 0.00, 0.00, 0.00, 14:27:19.483
142, -184.95, -104.58, 714.87, 672.81, 0.00, 0.00, 0.00, 14:27:19.483
143, -185.01, -104.35, 705.45, 667.37, 0.00, 0.00, 0.00, 14:27:19.484
144, -181.45, -101.65, 707.48, 664.46, 0.00, 0.00, 0.00, 14:27:19.484
145, -185.61, -105.66, 701.74, 656.80, 0.00, 0.00, 0.00, 14:27:19.488
146, -186.56, -106.11, 697.94, 654.92, 0.00, 0.00, 0.00, 14:27:19.488
147, -186.30, -99.71, 695.19, 658.99, 0.00, 0.00, 0.00, 14:27:19.513
148, -186.24, -96.72, 702.60, 656.95, 0.00, 0.00, 0.00, 14:27:19.513
149, -175.68, -89.90, 702.27, 659.16, 0.00, 0.00, 0.00, 14:27:19.514
150, -185.79, -102.68, 682.59, 641.57, 0.00, 0.00, 0.00, 14:27:19.514
151, -173.20, -92.84, 701.82, 660.60, 0.00, 0.00, 0.00, 14:27:19.514
152, -178.40, -95.11, 707.03, 670.86, 0.00, 0.00, 0.00, 14:27:19.514
153, -182.20, -98.79, 707.03, 667.75, 0.00, 0.00, 0.00, 14:27:19.544
154, -182.14, -103.01, 704.81, 660.03, 0.00, 0.00, 0.00, 14:27:19.545
155, -183.40, -104.71, 703.59, 657.55, 0.00, 0.00, 0.00, 14:27:19.545
156, -182.65, -105.19, 707.00, 667.66, 0.00, 0.00, 0.00, 14:27:19.546
157, -179.37, -108.24, 705.98, 670.38, 0.00, 0.00, 0.00, 14:27:19.546
158, -180.77, -108.93, 706.73, 665.74, 0.00, 0.00, 0.00, 14:27:19.547
159, -187.77, -105.52, 705.59, 665.71, 0.00, 0.00, 0.00, 14:27:19.573
160, -188.76, -102.08, 708.91, 661.19, 0.00, 0.00, 0.00, 14:27:19.573
161, -168.21, -87.04, 698.65, 658.53, 0.00, 0.00, 0.00, 14:27:19.573
162, -188.79, -102.03, 709.03, 674.12, 0.00, 0.00, 0.00, 14:27:19.574
163, -184.10, -105.62, 701.61, 657.54, 0.00, 0.00, 0.00, 14:27:19.574
164, -187.27, -103.94, 709.35, 665.80, 0.00, 0.00, 0.00, 14:27:19.574
165, -181.38, -98.35, 705.46, 662.59, 0.00, 0.00, 0.00, 14:27:19.603
166, -175.54, -91.14, 708.75, 675.22, 0.00, 0.00, 0.00, 14:27:19.603
167, -186.58, -99.43, 702.17, 656.25, 0.00, 0.00, 0.00, 14:27:19.604
168, -178.60, -94.73, 707.49, 660.65, 0.00, 0.00, 0.00, 14:27:19.604
169, -187.45, -100.06, 704.92, 661.66, 0.00, 0.00, 0.00, 14:27:19.604
170, -190.83, -101.53, 701.42, 662.47, 0.00, 0.00, 0.00, 14:27:19.605
171, -180.45, -93.93, 708.12, 664.83, 0.00, 0.00, 0.00, 14:27:19.633
172, -188.56, -106.55, 706.59, 663.63, 0.00, 0.00, 0.00, 14:27:19.633
173, -188.74, -99.31, 700.16, 664.17, 0.00, 0.00, 0.00, 14:27:19.633
174, -188.32, -102.73, 705.07, 668.36, 0.00, 0.00, 0.00, 14:27:19.634
175, -181.42, -95.64, 706.62, 671.35, 0.00, 0.00, 0.00, 14:27:19.634
176, -190.39, -107.45, 701.35, 668.65, 0.00, 0.00, 0.00, 14:27:19.634
177, -173.94, -96.00, 716.76, 683.79, 0.00, 0.00, 0.00, 14:27:19.663
178, -180.88, -90.28, 726.36, 690.07, 0.00, 0.00, 0.00, 14:27:19.663
179, -185.96, -102.82, 711.85, 678.61, 0.00, 0.00, 0.00, 14:27:19.664
180, -182.91, -96.15, 711.40, 686.06, 0.00, 0.00, 0.00, 14:27:19.664
181, -173.70, -92.68, 717.15, 686.09, 0.00, 0.00, 0.00, 14:27:19.664
182, -176.15, -93.43, 714.36, 693.00, 0.00, 0.00, 0.00, 14:27:19.664
183, -180.67, -99.23, 709.94, 675.61, 0.00, 0.00, 0.00, 14:27:19.694
184, -172.90, -95.65, 713.17, 683.03, 0.00, 0.00, 0.00, 14:27:19.694
185, -176.96, -102.95, 710.95, 684.47, 0.00, 0.00, 0.00, 14:27:19.694
186, -179.45, -102.62, 709.66, 675.82, 0.00, 0.00, 0.00, 14:27:19.695
187, -185.70, -107.38, 701.47, 668.76, 0.00, 0.00, 0.00, 14:27:19.695
188, -185.85, -99.78, 710.11, 670.82, 0.00, 0.00, 0.00, 14:27:19.695
189, -180.17, -91.58, 711.73, 677.58, 0.00, 0.00, 0.00, 14:27:19.723
190, -187.80, -102.11, 699.34, 667.44, 0.00, 0.00, 0.00, 14:27:19.723
191, -182.14, -95.89, 702.12, 661.07, 0.00, 0.00, 0.00, 14:27:19.724
192, -189.06, -102.27, 706.81, 672.34, 0.00, 0.00, 0.00, 14:27:19.724
193, -187.20, -106.30, 692.18, 658.10, 0.00, 0.00, 0.00, 14:27:19.724
194, -179.93, -99.40, 697.03, 661.00, 0.00, 0.00, 0.00, 14:27:19.725
195, -176.91, -94.58, 709.35, 665.88, 0.00, 0.00, 0.00, 14:27:19.753
196, -189.90, -114.87, 694.13, 653.16, 0.00, 0.00, 0.00, 14:27:19.753
197, -182.93, -102.03, 698.25, 661.39, 0.00, 0.00, 0.00, 14:27:19.753
198, -187.24, -107.66, 702.50, 658.22, 0.00, 0.00, 0.00, 14:27:19.754
199, -178.56, -102.09, 710.96, 670.69, 0.00, 0.00, 0.00, 14:27:19.754
200, -191.64, -102.66, 706.63, 650.50, 0.00, 0.00, 0.00, 14:27:19.754
201, -182.72, -103.89, 710.33, 657.14, 0.00, 0.00, 0.00, 14:27:19.783
202, -180.09, -98.21, 705.52, 652.98, 0.00, 0.00, 0.00, 14:27:19.783
203, -188.02, -109.75, 693.37, 646.81, 0.00, 0.00, 0.00, 14:27:19.784
204, -185.06, -107.36, 700.07, 659.65, 0.00, 0.00, 0.00, 14:27:19.784
205, -178.69, -106.23, 704.50, 664.25, 0.00, 0.00, 0.00, 14:27:19.784
206, -190.30, -111.40, 696.15, 656.68, 0.00, 0.00, 0.00, 14:27:19.784
207, -182.19, -109.25, 699.44, 656.71, 0.00, 0.00, 0.00, 14:27:19.813
208, -181.81, -98.48, 696.92, 657.43, 0.00, 0.00, 0.00, 14:27:19.813
209, -187.07, -98.28, 697.28, 656.35, 0.00, 0.00, 0.00, 14:27:19.813
210, -183.66, -99.47, 708.53, 667.78, 0.00, 0.00, 0.00, 14:27:19.813
211, -180.43, -96.39, 697.94, 661.55, 0.00, 0.00, 0.00, 14:27:19.815
212, -178.13, -95.98, 696.38, 660.51, 0.00, 0.00, 0.00, 14:27:19.815
213, -184.06, -99.48, 700.15, 660.21, 0.00, 0.00, 0.00, 14:27:19.847
214, -184.53, -97.95, 696.95, 653.15, 0.00, 0.00, 0.00, 14:27:19.847
215, -177.39, -90.08, 708.26, 664.07, 0.00, 0.00, 0.00, 14:27:19.848
216, -184.33, -95.20, 698.41, 654.49, 0.00, 0.00, 0.00, 14:27:19.848
217, -184.45, -99.30, 696.83, 647.70, 0.00, 0.00, 0.00, 14:27:19.849
218, -181.19, -97.33, 705.92, 660.59, 0.00, 0.00, 0.00, 14:27:19.849
219, -184.54, -95.59, 704.43, 661.55, 0.00, 0.00, 0.00, 14:27:19.873
220, -176.31, -95.48, 704.43, 657.93, 0.00, 0.00, 0.00, 14:27:19.873
221, -180.98, -95.09, 708.19, 664.06, 0.00, 0.00, 0.00, 14:27:19.874
222, -181.97, -104.48, 696.58, 652.24, 0.00, 0.00, 0.00, 14:27:19.874
223, -170.66, -91.95, 697.66, 648.29, 0.00, 0.00, 0.00, 14:27:19.874
224, -188.31, -105.95, 703.43, 657.57, 0.00, 0.00, 0.00, 14:27:19.874
225, -194.36, -111.19, 697.57, 654.39, 0.00, 0.00, 0.00, 14:27:19.903
226, -187.63, -107.63, 686.14, 641.95, 0.00, 0.00, 0.00, 14:27:19.903
227, -187.00, -105.90, 699.54, 656.04, 0.00, 0.00, 0.00, 14:27:19.903
228, -174.85, -98.39, 700.80, 654.18, 0.00, 0.00, 0.00, 14:27:19.904
229, -184.40, -100.69, 704.98, 661.27, 0.00, 0.00, 0.00, 14:27:19.904
230, -182.51, -99.86, 693.82, 654.27, 0.00, 0.00, 0.00, 14:27:19.904
231, -176.38, -87.44, 704.50, 664.32, 0.00, 0.00, 0.00, 14:27:19.933
232, -183.62, -100.25, 701.36, 661.63, 0.00, 0.00, 0.00, 14:27:19.933
233, -187.96, -106.35, 701.03, 656.21, 0.00, 0.00, 0.00, 14:27:19.934
234, -182.91, -100.88, 710.87, 662.70, 0.00, 0.00, 0.00, 14:27:19.934
235, -182.85, -101.30, 711.56, 669.05, 0.00, 0.00, 0.00, 14:27:19.934
236, -188.68, -100.70, 714.94, 674.01, 0.00, 0.00, 0.00, 14:27:19.935
237, -176.33, -100.37, 720.14, 675.30, 0.00, 0.00, 0.00, 14:27:19.963
238, -176.60, -87.54, 715.65, 673.41, 0.00, 0.00, 0.00, 14:27:19.963
239, -184.26, -96.51, 713.95, 670.27, 0.00, 0.00, 0.00, 14:27:19.965
240, -173.16, -94.03, 699.98, 656.66, 0.00, 0.00, 0.00, 14:27:19.966
241, -178.31, -97.41, 708.86, 658.66, 0.00, 0.00, 0.00, 14:27:19.967
242, -180.43, -97.86, 705.84, 666.47, 0.00, 0.00, 0.00, 14:27:19.967
243, -184.17, -103.43, 709.64, 673.79, 0.00, 0.00, 0.00, 14:27:19.993
244, -181.24, -104.20, 719.39, 677.05, 0.00, 0.00, 0.00, 14:27:19.993
245, -177.77, -104.74, 718.16, 668.23, 0.00, 0.00, 0.00, 14:27:19.993
246, -175.86, -102.47, 702.90, 657.43, 0.00, 0.00, 0.00, 14:27:19.993
247, -181.33, -97.51, 695.63, 655.30, 0.00, 0.00, 0.00, 14:27:19.994
248, -171.34, -90.72, 706.19, 653.48, 0.00, 0.00, 0.00, 14:27:19.994
249, -179.48, -98.68, 697.40, 655.18, 0.00, 0.00, 0.00, 14:27:20.023
250, -180.08, -97.93, 703.41, 665.08, 0.00, 0.00, 0.00, 14:27:20.023
251, -187.20, -108.25, 696.53, 652.01, 0.00, 0.00, 0.00, 14:27:20.023
252, -189.26, -108.31, 697.27, 656.01, 0.00, 0.00, 0.00, 14:27:20.024
253, -184.96, -105.23, 706.34, 659.30, 0.00, 0.00, 0.00, 14:27:20.024
254, -181.82, -103.77, 710.79, 667.32, 0.00, 0.00, 0.00, 14:27:20.024
0, -188.22, -100.35, 700.59, 657.29, 0.00, 0.00, 0.00, 14:27:20.027
1, -180.92, -97.15, 709.83, 663.79, 0.00, 0.00, 0.00, 14:27:20.053
2, -188.82, -105.80, 692.12, 652.81, 0.00, 0.00, 0.00, 14:27:20.053
3, -180.90, -100.47, 702.41, 663.33, 0.00, 0.00, 0.00, 14:27:20.054
4, -183.20, -96.20, 697.71, 657.05, 0.00, 0.00, 0.00, 14:27:20.054
5, -184.87, -100.41, 697.92, 663.30, 0.00, 0.00, 0.00, 14:27:20.055
6, -184.13, -102.99, 698.40, 659.80, 0.00, 0.00, 0.00, 14:27:20.056
7, -181.50, -99.82, 697.92, 657.23, 0.00, 0.00, 0.00, 14:27:20.083
8, -179.70, -100.60, 701.39, 663.00, 0.00, 0.00, 0.00, 14:27:20.083
9, -183.47, -101.91, 699.29, 657.92, 0.00, 0.00, 0.00, 14:27:20.083
10, -173.15, -91.26, 715.12, 669.67, 0.00, 0.00, 0.00, 14:27:20.084
11, -179.41, -95.42, 707.07, 660.79, 0.00, 0.00, 0.00, 14:27:20.084
12, -179.23, -90.55, 700.76, 656.33, 0.00, 0.00, 0.00, 14:27:20.084
13, -173.76, -89.65, 710.69, 668.44, 0.00, 0.00, 0.00, 14:27:20.113
14, -183.57, -98.48, 694.11, 657.73, 0.00, 0.00, 0.00, 14:27:20.113
15, -180.16, -97.76, 694.41, 648.04, 0.00, 0.00, 0.00, 14:27:20.114
16, -180.55, -94.98, 698.66, 648.34, 0.00, 0.00, 0.00, 14:27:20.114
17, -182.88, -104.14, 699.40, 652.82, 0.00, 0.00, 0.00, 14:27:20.114
18, -186.71, -105.24, 700.69, 657.88, 0.00, 0.00, 0.00, 14:27:20.115
19, -176.72, -94.05, 714.48, 669.66, 0.00, 0.00, 0.00, 14:27:20.143
20, -185.70, -102.31, 696.29, 649.98, 0.00, 0.00, 0.00, 14:27:20.143
21, -181.12, -97.86, 703.65, 660.57, 0.00, 0.00, 0.00, 14:27:20.144
22, -186.87, -98.96, 706.55, 663.26, 0.00, 0.00, 0.00, 14:27:20.144
23, -199.01, -105.55, 706.16, 666.70, 0.00, 0.00, 0.00, 14:27:20.144
24, -195.22, -113.98, 711.36, 670.52, 0.00, 0.00, 0.00, 14:27:20.144
25, -179.66, -105.43, 695.80, 655.53, 0.00, 0.00, 0.00, 14:27:20.173
26, -179.75, -105.55, 708.58, 661.84, 0.00, 0.00, 0.00, 14:27:20.173
27, -187.41, -114.04, 715.76, 668.13, 0.00, 0.00, 0.00, 14:27:20.174
28, -183.58, -106.18, 703.07, 665.67, 0.00, 0.00, 0.00, 14:27:20.174
29, -186.84, -115.57, 714.26, 675.01, 0.00, 0.00, 0.00, 14:27:20.174
30, -164.19, -91.55, 714.97, 665.61, 0.00, 0.00, 0.00, 14:27:20.174
31, -176.85, -109.11, 699.03, 654.99, 0.00, 0.00, 0.00, 14:27:20.203
32, -184.00, -111.62, 700.61, 658.76, 0.00, 0.00, 0.00, 14:27:20.203
33, -178.95, -103.19, 713.95, 674.76, 0.00, 0.00, 0.00, 14:27:20.203
34, -183.08, -107.59, 711.38, 674.40, 0.00, 0.00, 0.00, 14:27:20.203
35, -184.54, -112.11, 710.48, 667.31, 0.00, 0.00, 0.00, 14:27:20.233
36, -183.32, -117.10, 709.37, 659.77, 0.00, 0.00, 0.00, 14:27:20.233
37, -183.71, -109.15, 714.28, 667.85, 0.00, 0.00, 0.00, 14:27:20.233
38, -191.19, -117.01, 698.09, 648.67, 0.00, 0.00, 0.00, 14:27:20.234
39, -187.21, -114.41, 708.17, 662.67, 0.00, 0.00, 0.00, 14:27:20.234
40, -183.23, -107.65, 706.08, 657.67, 0.00, 0.00, 0.00, 14:27:20.234
41, -184.70, -108.40, 698.96, 657.17, 0.00, 0.00, 0.00, 14:27:20.234
42, -186.16, -102.00, 697.04, 655.10, 0.00, 0.00, 0.00, 14:27:20.235
43, -182.07, -101.97, 695.31, 655.64, 0.00, 0.00, 0.00, 14:27:20.263
44, -185.33, -106.37, 702.01, 667.84, 0.00, 0.00, 0.00, 14:27:20.263
45, -193.11, -107.60, 694.71, 657.82, 0.00, 0.00, 0.00, 14:27:20.263
46, -183.38, -105.44, 707.06, 664.01, 0.00, 0.00, 0.00, 14:27:20.264
47, -184.67, -107.45, 710.59, 671.10, 0.00, 0.00, 0.00, 14:27:20.264
48, -190.98, -105.72, 707.72, 664.94, 0.00, 0.00, 0.00, 14:27:20.264
49, -188.83, -108.20, 716.99, 665.53, 0.00, 0.00, 0.00, 14:27:20.293
50, -180.19, -98.93, 701.14, 654.70, 0.00, 0.00, 0.00, 14:27:20.294
51, -183.84, -99.70, 693.03, 648.39, 0.00, 0.00, 0.00, 14:27:20.294
52, -188.89, -103.41, 685.73, 638.10, 0.00, 0.00, 0.00, 14:27:20.294
53, -181.59, -89.71, 699.43, 657.54, 0.00, 0.00, 0.00, 14:27:20.295
54, -176.39, -86.69, 706.31, 670.80, 0.00, 0.00, 0.00, 14:27:20.295
55, -176.75, -97.97, 705.08, 662.27, 0.00, 0.00, 0.00, 14:27:20.323
56, -179.77, -97.59, 695.60, 651.89, 0.00, 0.00, 0.00, 14:27:20.323
57, -178.55, -104.29, 706.10, 661.61, 0.00, 0.00, 0.00, 14:27:20.323
58, -186.00, -105.12, 694.52, 639.11, 0.00, 0.00, 0.00, 14:27:20.323
59, -180.76, -102.05, 690.78, 645.15, 0.00, 0.00, 0.00, 14:27:20.324
60, -178.49, -97.53, 695.83, 656.64, 0.00, 0.00, 0.00, 14:27:20.324
61, -187.59, -106.80, 698.64, 658.88, 0.00, 0.00, 0.00, 14:27:20.353
62, -181.36, -96.48, 698.22, 660.52, 0.00, 0.00, 0.00, 14:27:20.354
63, -175.11, -93.49, 706.48, 665.52, 0.00, 0.00, 0.00, 14:27:20.354
64, -187.89, -101.18, 706.06, 661.96, 0.00, 0.00, 0.00, 14:27:20.354
65, -187.74, -97.68, 699.06, 660.52, 0.00, 0.00, 0.00, 14:27:20.355
66, -184.39, -98.40, 697.35, 661.15, 0.00, 0.00, 0.00, 14:27:20.355
67, -186.46, -101.72, 700.34, 667.31, 0.00, 0.00, 0.00, 14:27:20.383
68, -190.50, -107.44, 706.54, 672.48, 0.00, 0.00, 0.00, 14:27:20.383
69, -188.88, -105.32, 701.84, 674.04, 0.00, 0.00, 0.00, 14:27:20.383
70, -176.86, -98.26, 707.97, 672.90, 0.00, 0.00, 0.00, 14:27:20.384
71, -188.97, -107.11, 702.73, 672.39, 0.00, 0.00, 0.00, 14:27:20.384
72, -183.83, -100.17, 708.21, 681.28, 0.00, 0.00, 0.00, 14:27:20.385
73, -186.22, -100.38, 710.60, 681.39, 0.00, 0.00, 0.00, 14:27:20.413
74, -184.55, -99.88, 707.64, 678.91, 0.00, 0.00, 0.00, 14:27:20.413
75, -187.48, -112.68, 707.73, 685.37, 0.00, 0.00, 0.00, 14:27:20.414
76, -193.02, -114.45, 720.86, 692.31, 0.00, 0.00, 0.00, 14:27:20.414
77, -188.53, -96.50, 704.37, 676.63, 0.00, 0.00, 0.00, 14:27:20.414
78, -160.26, -73.67, 707.51, 682.02, 0.00, 0.00, 0.00, 14:27:20.414
79, -161.37, -81.93, 701.71, 664.60, 0.00, 0.00, 0.00, 14:27:20.443
80, -158.50, -64.82, 690.52, 659.88, 0.00, 0.00, 0.00, 14:27:20.444
81, -153.08, -60.69, 696.23, 665.11, 0.00, 0.00, 0.00, 14:27:20.444
82, -157.54, -61.17, 693.36, 661.73, 0.00, 0.00, 0.00, 14:27:20.446
83, -159.66, -61.95, 697.46, 664.99, 0.00, 0.00, 0.00, 14:27:20.446
84, -156.67, -63.92, 705.89, 667.62, 0.00, 0.00, 0.00, 14:27:20.447
85, -175.34, -83.31, 702.09, 667.65, 0.00, 0.00, 0.00, 14:27:20.474
86, -180.82, -88.96, 701.73, 670.88, 0.00, 0.00, 0.00, 14:27:20.474
87, -182.88, -92.31, 690.90, 657.41, 0.00, 0.00, 0.00, 14:27:20.474
88, -182.97, -89.35, 705.23, 672.76, 0.00, 0.00, 0.00, 14:27:20.474
89, -185.25, -95.28, 695.69, 661.39, 0.00, 0.00, 0.00, 14:27:20.475
90, -173.13, -88.73, 700.38, 657.71, 0.00, 0.00, 0.00, 14:27:20.475
91, -182.56, -96.57, 693.11, 657.71, 0.00, 0.00, 0.00, 14:27:20.504
92, -187.28, -98.60, 691.08, 654.63, 0.00, 0.00, 0.00, 14:27:20.504
93, -181.75, -97.94, 702.47, 663.45, 0.00, 0.00, 0.00, 14:27:20.504
94, -179.93, -95.76, 707.68, 662.65, 0.00, 0.00, 0.00, 14:27:20.504
95, -189.50, -100.67, 709.80, 665.37, 0.00, 0.00, 0.00, 14:27:20.505
96, -186.54, -103.42, 716.83, 672.85, 0.00, 0.00, 0.00, 14:27:20.505
97, -181.01, -95.52, 712.73, 659.59, 0.00, 0.00, 0.00, 14:27:20.533
98, -193.75, -108.42, 692.81, 647.56, 0.00, 0.00, 0.00, 14:27:20.533
99, -188.67, -101.96, 691.37, 642.96, 0.00, 0.00, 0.00, 14:27:20.534
100, -181.52, -96.04, 703.07, 657.32, 0.00, 0.00, 0.00, 14:27:20.534
101, -186.61, -104.00, 703.33, 660.19, 0.00, 0.00, 0.00, 14:27:20.534
102, -184.00, -101.84, 705.99, 661.53, 0.00, 0.00, 0.00, 14:27:20.534
103, -188.43, -97.24, 708.57, 663.41, 0.00, 0.00, 0.00, 14:27:20.563
104, -189.90, -101.79, 693.25, 649.29, 0.00, 0.00, 0.00, 14:27:20.564
105, -188.14, -95.23, 704.55, 656.08, 0.00, 0.00, 0.00, 14:27:20.564
106, -186.70, -103.58, 699.71, 652.40, 0.00, 0.00, 0.00, 14:27:20.564
107, -182.99, -93.74, 707.57, 662.72, 0.00, 0.00, 0.00, 14:27:20.564
108, -187.90, -106.34, 699.11, 657.25, 0.00, 0.00, 0.00, 14:27:20.565
109, -180.15, -98.71, 699.85, 648.09, 0.00, 0.00, 0.00, 14:27:20.593
110, -180.54, -97.42, 707.36, 656.74, 0.00, 0.00, 0.00, 14:27:20.593
111, -187.36, -106.85, 688.96, 646.32, 0.00, 0.00, 0.00, 14:27:20.594
112, -183.63, -100.99, 698.14, 651.86, 0.00, 0.00, 0.00, 14:27:20.594
113, -180.93, -94.05, 692.34, 648.27, 0.00, 0.00, 0.00, 14:27:20.594
114, -182.88, -99.55, 697.12, 655.77, 0.00, 0.00, 0.00, 14:27:20.594
115, -181.92, -100.84, 692.13, 645.09, 0.00, 0.00, 0.00, 14:27:20.623
116, -184.89, -101.14, 699.07, 651.14, 0.00, 0.00, 0.00, 14:27:20.623
117, -184.95, -99.67, 703.40, 655.05, 0.00, 0.00, 0.00, 14:27:20.624
118, -191.56, -101.44, 683.87, 638.75, 0.00, 0.00, 0.00, 14:27:20.624
119, -186.35, -101.26, 685.36, 642.45, 0.00, 0.00, 0.00, 14:27:20.624
120, -175.67, -95.70, 702.20, 657.89, 0.00, 0.00, 0.00, 14:27:20.624
121, -185.94, -105.30, 696.04, 654.57, 0.00, 0.00, 0.00, 14:27:20.653
122, -188.66, -112.03, 691.91, 648.32, 0.00, 0.00, 0.00, 14:27:20.653
123, -178.85, -102.25, 696.04, 651.13, 0.00, 0.00, 0.00, 14:27:20.654
124, -180.82, -100.52, 698.34, 653.19, 0.00, 0.00, 0.00, 14:27:20.654
125, -182.74, -101.42, 698.22, 654.27, 0.00, 0.00, 0.00, 14:27:20.654
126, -175.62, -93.31, 701.81, 658.24, 0.00, 0.00, 0.00, 14:27:20.655
127, -177.17, -95.70, 700.16, 660.19, 0.00, 0.00, 0.00, 14:27:20.683
128, -183.58, -102.08, 697.44, 657.76, 0.00, 0.00, 0.00, 14:27:20.683
129, -178.79, -96.96, 710.69, 671.40, 0.00, 0.00, 0.00, 14:27:20.683
130, -178.14, -90.11, 703.30, 672.12, 0.00, 0.00, 0.00, 14:27:20.684
131, -187.05, -100.08, 699.65, 659.55, 0.00, 0.00, 0.00, 14:27:20.684
132, -185.23, -106.54, 702.43, 663.38, 0.00, 0.00, 0.00, 14:27:20.684
133, -183.88, -103.70, 710.18, 662.69, 0.00, 0.00, 0.00, 14:27:20.713
134, -182.66, -99.03, 704.71, 645.70, 0.00, 0.00, 0.00, 14:27:20.714
135, -178.65, -102.71, 699.77, 660.24, 0.00, 0.00, 0.00, 14:27:20.714
136, -176.02, -94.94, 708.62, 665.50, 0.00, 0.00, 0.00, 14:27:20.714
137, -186.97, -102.39, 709.67, 664.66, 0.00, 0.00, 0.00, 14:27:20.714
138, -164.29, -85.15, 697.40, 653.41, 0.00, 0.00, 0.00, 14:27:20.714
139, -164.56, -88.71, 696.17, 656.52, 0.00, 0.00, 0.00, 14:27:20.743
140, -173.84, -90.66, 692.61, 652.64, 0.00, 0.00, 0.00, 14:27:20.743
141, -169.38, -84.68, 687.29, 648.92, 0.00, 0.00, 0.00, 14:27:20.744
142, -166.63, -83.90, 695.57, 662.57, 0.00, 0.00, 0.00, 14:27:20.744
143, -168.40, -85.85, 699.16, 658.47, 0.00, 0.00, 0.00, 14:27:20.744
144, -175.94, -92.43, 704.82, 661.19, 0.00, 0.00, 0.00, 14:27:20.744
145, -180.69, -99.58, 702.03, 666.09, 0.00, 0.00, 0.00, 14:27:20.773
146, -174.59, -84.35, 698.89, 658.58, 0.00, 0.00, 0.00, 14:27:20.773
147, -180.49, -101.56, 691.02, 646.91, 0.00, 0.00, 0.00, 14:27:20.774
148, -186.50, -96.17, 690.93, 650.08, 0.00, 0.00, 0.00, 14:27:20.774
149, -184.98, -94.35, 691.20, 653.16, 0.00, 0.00, 0.00, 14:27:20.774
150, -178.28, -92.70, 701.79, 658.73, 0.00, 0.00, 0.00, 14:27:20.774
151, -187.25, -101.59, 700.26, 665.49, 0.00, 0.00, 0.00, 14:27:20.803
152, -181.06, -99.80, 708.40, 678.68, 0.00, 0.00, 0.00, 14:27:20.804
153, -181.60, -101.41, 710.49, 664.11, 0.00, 0.00, 0.00, 14:27:20.804
154, -185.01, -104.85, 698.26, 649.45, 0.00, 0.00, 0.00, 14:27:20.804
155, -187.04, -103.96, 693.29, 650.05, 0.00, 0.00, 0.00, 14:27:20.804
156, -182.77, -99.44, 703.43, 656.95, 0.00, 0.00, 0.00, 14:27:20.805
157, -184.92, -103.81, 698.67, 648.22, 0.00, 0.00, 0.00, 14:27:20.832
158, -186.03, -115.42, 699.24, 655.40, 0.00, 0.00, 0.00, 14:27:20.833
159, -186.00, -106.53, 703.67, 660.81, 0.00, 0.00, 0.00, 14:27:20.833
160, -181.16, -101.60, 707.07, 665.00, 0.00, 0.00, 0.00, 14:27:20.833
161, -185.88, -108.87, 699.42, 654.38, 0.00, 0.00, 0.00, 14:27:20.834
162, -189.74, -108.51, 708.30, 661.26, 0.00, 0.00, 0.00, 14:27:20.834
163, -180.80, -105.91, 710.39, 658.41, 0.00, 0.00, 0.00, 14:27:20.863
164, -174.91, -99.12, 694.24, 656.35, 0.00, 0.00, 0.00, 14:27:20.863
165, -186.07, -108.85, 688.52, 646.27, 0.00, 0.00, 0.00, 14:27:20.863
166, -184.09, -103.88, 695.82, 652.43, 0.00, 0.00, 0.00, 14:27:20.864
167, -176.23, -98.44, 702.37, 658.59, 0.00, 0.00, 0.00, 14:27:20.864
168, -178.23, -97.15, 710.42, 665.65, 0.00, 0.00, 0.00, 14:27:20.864
169, -187.18, -105.35, 703.33, 661.88, 0.00, 0.00, 0.00, 14:27:20.893
170, -180.81, -101.97, 705.99, 662.77, 0.00, 0.00, 0.00, 14:27:20.894
171, -190.02, -102.72, 692.79, 649.85, 0.00, 0.00, 0.00, 14:27:20.894
172, -186.49, -101.41, 698.74, 651.46, 0.00, 0.00, 0.00, 14:27:20.894
173, -180.06, -96.89, 704.43, 653.32, 0.00, 0.00, 0.00, 14:27:20.894
174, -179.29, -98.33, 706.61, 662.83, 0.00, 0.00, 0.00, 14:27:20.895
175, -185.90, -103.92, 693.59, 652.12, 0.00, 0.00, 0.00, 14:27:20.923
176, -188.05, -103.80, 689.20, 645.47, 0.00, 0.00, 0.00, 14:27:20.923
177, -183.12, -99.95, 695.27, 655.47, 0.00, 0.00, 0.00, 14:27:20.923
178, -186.71, -102.73, 695.80, 652.29, 0.00, 0.00, 0.00, 14:27:20.923
179, -178.57, -97.76, 701.73, 655.08, 0.00, 0.00, 0.00, 14:27:20.924
180, -176.18, -94.71, 699.57, 659.50, 0.00, 0.00, 0.00, 14:27:20.924
181, -170.95, -94.42, 705.76, 666.35, 0.00, 0.00, 0.00, 14:27:20.953
182, -178.99, -96.60, 705.70, 666.86, 0.00, 0.00, 0.00, 14:27:20.953
183, -181.90, -100.58, 701.70, 659.20, 0.00, 0.00, 0.00, 14:27:20.953
184, -184.41, -105.55, 694.72, 662.55, 0.00, 0.00, 0.00, 14:27:20.954
185, -188.45, -107.94, 697.83, 660.36, 0.00, 0.00, 0.00, 14:27:20.954
186, -180.82, -96.93, 706.30, 666.97, 0.00, 0.00, 0.00, 14:27:20.954
187, -182.14, -98.94, 700.76, 653.72, 0.00, 0.00, 0.00, 14:27:20.983
188, -184.20, -103.66, 698.10, 657.85, 0.00, 0.00, 0.00, 14:27:20.983
189, -175.98, -95.38, 694.51, 658.26, 0.00, 0.00, 0.00, 14:27:20.984
190, -174.87, -99.92, 697.59, 648.45, 0.00, 0.00, 0.00, 14:27:20.984
191, -185.85, -104.20, 685.83, 633.16, 0.00, 0.00, 0.00, 14:27:20.984
192, -181.57, -98.49, 689.78, 644.53, 0.00, 0.00, 0.00, 14:27:20.984
193, -181.87, -98.19, 690.38, 649.40, 0.00, 0.00, 0.00, 14:27:21.013
194, -186.90, -104.95, 694.44, 659.60, 0.00, 0.00, 0.00, 14:27:21.014
195, -185.61, -104.30, 697.34, 648.26, 0.00, 0.00, 0.00, 14:27:21.015
196, -182.42, -94.55, 702.25, 652.18, 0.00, 0.00, 0.00, 14:27:21.015
197, -180.29, -101.55, 697.46, 652.66, 0.00, 0.00, 0.00, 14:27:21.015
198, -184.30, -98.98, 695.85, 654.21, 0.00, 0.00, 0.00, 14:27:21.016
199, -178.41, -102.72, 704.37, 661.48, 0.00, 0.00, 0.00, 14:27:21.043
200, -173.80, -100.00, 704.22, 658.70, 0.00, 0.00, 0.00, 14:27:21.043
201, -184.01, -103.91, 699.58, 658.28, 0.00, 0.00, 0.00, 14:27:21.043
202, -171.83, -91.41, 721.90, 680.48, 0.00, 0.00, 0.00, 14:27:21.044
203, -183.11, -96.77, 715.47, 671.56, 0.00, 0.00, 0.00, 14:27:21.044
204, -182.25, -103.14, 702.90, 670.87, 0.00, 0.00, 0.00, 14:27:21.044
205, -190.11, -101.50, 695.39, 660.55, 0.00, 0.00, 0.00, 14:27:21.073
206, -180.00, -95.06, 708.80, 667.34, 0.00, 0.00, 0.00, 14:27:21.073
207, -176.15, -96.98, 721.12, 678.65, 0.00, 0.00, 0.00, 14:27:21.073
208, -179.95, -105.03, 716.63, 674.67, 0.00, 0.00, 0.00, 14:27:21.073
209, -180.45, -98.60, 699.13, 655.37, 0.00, 0.00, 0.00, 14:27:21.074
210, -181.50, -101.77, 695.81, 655.55, 0.00, 0.00, 0.00, 14:27:21.074
211, -183.89, -107.69, 694.01, 662.91, 0.00, 0.00, 0.00, 14:27:21.103
212, -187.99, -104.85, 689.35, 655.13, 0.00, 0.00, 0.00, 14:27:21.103
213, -185.03, -110.03, 697.63, 660.48, 0.00, 0.00, 0.00, 14:27:21.103
214, -180.82, -93.96, 702.54, 669.73, 0.00, 0.00, 0.00, 14:27:21.107
215, -182.31, -99.56, 702.95, 669.67, 0.00, 0.00, 0.00, 14:27:21.107
216, -182.64, -103.87, 704.27, 671.82, 0.00, 0.00, 0.00, 14:27:21.108
217, -184.53, -104.58, 704.42, 666.46, 0.00, 0.00, 0.00, 14:27:21.133
218, -182.40, -104.67, 703.79, 675.08, 0.00, 0.00, 0.00, 14:27:21.134
219, -192.49, -111.20, 697.98, 659.61, 0.00, 0.00, 0.00, 14:27:21.134
220, -186.12, -105.51, 704.35, 664.60, 0.00, 0.00, 0.00, 14:27:21.134
221, -194.58, -116.76, 700.29, 667.89, 0.00, 0.00, 0.00, 14:27:21.135
222, -193.81, -116.29, 691.16, 659.73, 0.00, 0.00, 0.00, 14:27:21.135
223, -185.28, -99.71, 702.59, 668.40, 0.00, 0.00, 0.00, 14:27:21.164
224, -181.63, -100.22, 704.53, 681.77, 0.00, 0.00, 0.00, 14:27:21.164
225, -177.51, -105.64, 709.85, 681.29, 0.00, 0.00, 0.00, 14:27:21.165
226, -182.05, -104.86, 706.26, 668.70, 0.00, 0.00, 0.00, 14:27:21.165
227, -180.14, -106.63, 710.45, 678.21, 0.00, 0.00, 0.00, 14:27:21.165
228, -187.38, -105.37, 708.92, 670.22, 0.00, 0.00, 0.00, 14:27:21.165
229, -188.91, -106.39, 695.97, 650.51, 0.00, 0.00, 0.00, 14:27:21.193
230, -181.10, -101.93, 704.49, 666.51, 0.00, 0.00, 0.00, 14:27:21.193
231, -190.68, -112.23, 698.63, 664.15, 0.00, 0.00, 0.00, 14:27:21.193
232, -184.69, -102.05, 702.61, 662.44, 0.00, 0.00, 0.00, 14:27:21.194
233, -182.93, -99.99, 702.76, 666.78, 0.00, 0.00, 0.00, 14:27:21.194
234, -189.87, -104.12, 707.75, 666.90, 0.00, 0.00, 0.00, 14:27:21.194
235, -197.89, -111.48, 702.57, 661.00, 0.00, 0.00, 0.00, 14:27:21.223
236, -183.08, -98.23, 712.48, 662.79, 0.00, 0.00, 0.00, 14:27:21.223
237, -175.03, -95.57, 705.29, 665.52, 0.00, 0.00, 0.00, 14:27:21.223
238, -171.60, -95.99, 705.20, 665.54, 0.00, 0.00, 0.00, 14:27:21.224
239, -173.09, -91.02, 706.34, 665.00, 0.00, 0.00, 0.00, 14:27:21.224
240, -173.27, -89.44, 704.34, 664.86, 0.00, 0.00, 0.00, 14:27:21.224
241, -187.33, -106.43, 708.37, 664.17, 0.00, 0.00, 0.00, 14:27:21.253
242, -184.31, -103.38, 696.58, 657.26, 0.00, 0.00, 0.00, 14:27:21.253
243, -184.23, -101.41, 699.45, 661.38, 0.00, 0.00, 0.00, 14:27:21.253
244, -178.27, -103.92, 702.56, 654.80, 0.00, 0.00, 0.00, 14:27:21.253
245, -184.47, -97.43, 689.82, 646.48, 0.00, 0.00, 0.00, 14:27:21.254
246, -181.93, -95.94, 705.38, 655.94, 0.00, 0.00, 0.00, 14:27:21.254
247, -179.06, -93.85, 703.22, 657.52, 0.00, 0.00, 0.00, 14:27:21.283
248, -183.75, -101.47, 703.19, 652.91, 0.00, 0.00, 0.00, 14:27:21.283
249, -181.03, -101.77, 698.37, 651.83, 0.00, 0.00, 0.00, 14:27:21.313
250, -181.45, -94.71, 700.11, 659.13, 0.00, 0.00, 0.00, 14:27:21.313
251, -177.26, -94.18, 702.53, 668.38, 0.00, 0.00, 0.00, 14:27:21.313
252, -183.67, -103.78, 692.03, 654.40, 0.00, 0.00, 0.00, 14:27:21.314
253, -180.89, -103.07, 702.11, 652.97, 0.00, 0.00, 0.00, 14:27:21.314
254, -175.80, -100.41, 708.75, 661.37, 0.00, 0.00, 0.00, 14:27:21.315
0, -181.25, -96.73, 701.72, 662.74, 0.00, 0.00, 0.00, 14:27:21.317
1, -169.49, -88.71, 715.01, 674.74, 0.00, 0.00, 0.00, 14:27:21.343
2, -178.23, -96.28, 716.08, 672.07, 0.00, 0.00, 0.00, 14:27:21.343
3, -188.01, -106.63, 695.80, 648.44, 0.00, 0.00, 0.00, 14:27:21.343
4, -187.54, -106.37, 711.62, 661.81, 0.00, 0.00, 0.00, 14:27:21.344
5, -187.00, -107.29, 697.80, 645.41, 0.00, 0.00, 0.00, 14:27:21.344
6, -186.49, -106.49, 701.42, 659.11, 0.00, 0.00, 0.00, 14:27:21.344
7, -179.40, -94.16, 696.03, 650.14, 0.00, 0.00, 0.00, 14:27:21.345
8, -176.65, -93.24, 703.48, 653.79, 0.00, 0.00, 0.00, 14:27:21.345
9, -178.96, -95.81, 704.35, 660.58, 0.00, 0.00, 0.00, 14:27:21.373
10, -178.24, -99.73, 700.31, 661.62, 0.00, 0.00, 0.00, 14:27:21.373
11, -178.69, -93.33, 703.39, 660.87, 0.00, 0.00, 0.00, 14:27:21.373
12, -182.07, -103.92, 704.64, 668.05, 0.00, 0.00, 0.00, 14:27:21.374
13, -180.61, -100.15, 687.35, 647.86, 0.00, 0.00, 0.00, 14:27:21.374
14, -183.84, -106.20, 692.58, 645.04, 0.00, 0.00, 0.00, 14:27:21.374
15, -177.59, -98.30, 706.58, 657.40, 0.00, 0.00, 0.00, 14:27:21.403
16, -178.75, -98.30, 700.30, 658.44, 0.00, 0.00, 0.00, 14:27:21.403
17, -182.05, -97.61, 695.60, 657.76, 0.00, 0.00, 0.00, 14:27:21.404
18, -186.74, -101.20, 691.50, 651.86, 0.00, 0.00, 0.00, 14:27:21.404
19, -189.44, -105.33, 696.38, 656.68, 0.00, 0.00, 0.00, 14:27:21.404
20, -190.66, -107.85, 692.58, 651.74, 0.00, 0.00, 0.00, 14:27:21.404
21, -179.62, -98.54, 690.84, 652.40, 0.00, 0.00, 0.00, 14:27:21.433
22, -183.66, -103.33, 696.80, 650.15, 0.00, 0.00, 0.00, 14:27:21.433
23, -186.92, -103.09, 686.32, 643.42, 0.00, 0.00, 0.00, 14:27:21.433
24, -189.05, -107.16, 694.52, 654.07, 0.00, 0.00, 0.00, 14:27:21.433
25, -185.01, -104.17, 702.48, 652.66, 0.00, 0.00, 0.00, 14:27:21.434
26, -185.52, -98.85, 699.69, 651.50, 0.00, 0.00, 0.00, 14:27:21.434
27, -182.86, -99.72, 702.56, 656.73, 0.00, 0.00, 0.00, 14:27:21.463
28, -182.59, -99.69, 697.39, 661.37, 0.00, 0.00, 0.00, 14:27:21.463
29, -186.42, -102.89, 700.08, 650.18, 0.00, 0.00, 0.00, 14:27:21.464
30, -187.35, -104.00, 707.95, 658.55, 0.00, 0.00, 0.00, 14:27:21.464
31, -185.41, -102.86, 701.33, 655.92, 0.00, 0.00, 0.00, 14:27:21.464
32, -189.27, -102.62, 690.62, 645.75, 0.00, 0.00, 0.00, 14:27:21.465
33, -186.75, -102.12, 693.28, 645.51, 0.00, 0.00, 0.00, 14:27:21.493
34, -188.52, -100.05, 688.41, 643.98, 0.00, 0.00, 0.00, 14:27:21.493
35, -170.45, -86.89, 705.49, 673.06, 0.00, 0.00, 0.00, 14:27:21.494
36, -191.54, -113.10, 693.97, 666.45, 0.00, 0.00, 0.00, 14:27:21.494
37, -186.34, -104.69, 692.77, 661.78, 0.00, 0.00, 0.00, 14:27:21.495
38, -178.05, -95.33, 703.09, 663.22, 0.00, 0.00, 0.00, 14:27:21.495
39, -177.97, -95.78, 707.43, 656.49, 0.00, 0.00, 0.00, 14:27:21.523
40, -175.90, -93.42, 699.68, 665.64, 0.00, 0.00, 0.00, 14:27:21.524
41, -183.44, -98.45, 692.89, 656.75, 0.00, 0.00, 0.00, 14:27:21.524
42, -181.68, -98.42, 701.80, 668.63, 0.00, 0.00, 0.00, 14:27:21.524
43, -181.14, -100.66, 695.58, 653.37, 0.00, 0.00, 0.00, 14:27:21.524
44, -178.03, -97.43, 694.65, 653.40, 0.00, 0.00, 0.00, 14:27:21.525
45, -174.05, -94.41, 709.28, 667.40, 0.00, 0.00, 0.00, 14:27:21.553
46, -182.67, -95.40, 700.25, 651.90, 0.00, 0.00, 0.00, 14:27:21.553
47, -176.54, -99.11, 703.27, 648.07, 0.00, 0.00, 0.00, 14:27:21.554
48, -184.59, -101.29, 702.97, 661.83, 0.00, 0.00, 0.00, 14:27:21.554
49, -181.72, -99.53, 708.62, 662.37, 0.00, 0.00, 0.00, 14:27:21.555
50, -192.25, -105.45, 705.78, 653.75, 0.00, 0.00, 0.00, 14:27:21.555
51, -184.14, -100.91, 699.85, 654.83, 0.00, 0.00, 0.00, 14:27:21.584
52, -189.23, -96.36, 699.85, 655.24, 0.00, 0.00, 0.00, 14:27:21.585
53, -186.09, -99.74, 696.80, 653.06, 0.00, 0.00, 0.00, 14:27:21.585
54, -184.87, -111.71, 696.32, 647.91, 0.00, 0.00, 0.00, 14:27:21.585
55, -177.39, -90.38, 701.17, 652.16, 0.00, 0.00, 0.00, 14:27:21.585
56, -182.17, -101.06, 692.46, 649.02, 0.00, 0.00, 0.00, 14:27:21.585
57, -191.33, -105.58, 691.53, 648.45, 0.00, 0.00, 0.00, 14:27:21.613
58, -175.35, -97.89, 712.27, 667.99, 0.00, 0.00, 0.00, 14:27:21.613
59, -193.52, -111.77, 706.34, 666.91, 0.00, 0.00, 0.00, 14:27:21.613
60, -192.80, -113.81, 705.80, 667.56, 0.00, 0.00, 0.00, 14:27:21.613
61, -187.57, -107.41, 703.05, 650.54, 0.00, 0.00, 0.00, 14:27:21.614
62, -190.53, -107.92, 697.64, 651.35, 0.00, 0.00, 0.00, 14:27:21.614
63, -196.54, -109.53, 697.66, 651.02, 0.00, 0.00, 0.00, 14:27:21.643
64, -192.71, -106.60, 697.24, 651.08, 0.00, 0.00, 0.00, 14:27:21.643
65, -182.72, -95.50, 700.26, 663.25, 0.00, 0.00, 0.00, 14:27:21.643
66, -184.01, -105.38, 706.13, 663.91, 0.00, 0.00, 0.00, 14:27:21.644
67, -181.29, -101.58, 700.71, 661.87, 0.00, 0.00, 0.00, 14:27:21.644
68, -173.81, -98.29, 695.86, 660.14, 0.00, 0.00, 0.00, 14:27:21.644
69, -185.00, -102.09, 688.06, 641.77, 0.00, 0.00, 0.00, 14:27:21.673
70, -185.87, -103.47, 686.89, 639.73, 0.00, 0.00, 0.00, 14:27:21.673
71, -178.93, -93.83, 692.81, 643.80, 0.00, 0.00, 0.00, 14:27:21.673
72, -177.31, -91.56, 700.53, 664.50, 0.00, 0.00, 0.00, 14:27:21.673
73, -181.38, -97.82, 709.05, 668.87, 0.00, 0.00, 0.00, 14:27:21.674
74, -185.30, -93.78, 710.49, 670.21, 0.00, 0.00, 0.00, 14:27:21.674
75, -194.79, -104.13, 696.07, 655.07, 0.00, 0.00, 0.00, 14:27:21.703
76, -187.34, -103.86, 694.27, 649.99, 0.00, 0.00, 0.00, 14:27:21.703
77, -181.69, -100.48, 703.60, 664.77, 0.00, 0.00, 0.00, 14:27:21.703
78, -185.76, -103.36, 707.52, 665.93, 0.00, 0.00, 0.00, 14:27:21.703
79, -189.88, -111.82, 692.29, 648.94, 0.00, 0.00, 0.00, 14:27:21.704
80, -189.23, -106.56, 687.51, 647.02, 0.00, 0.00, 0.00, 14:27:21.704
81, -187.11, -110.51, 698.27, 646.87, 0.00, 0.00, 0.00, 14:27:21.733
82, -175.86, -104.05, 696.06, 648.49, 0.00, 0.00, 0.00, 14:27:21.733
83, -181.93, -103.39, 692.20, 651.03, 0.00, 0.00, 0.00, 14:27:21.733
84, -186.93, -113.59, 691.24, 652.07, 0.00, 0.00, 0.00, 14:27:21.734
85, -175.65, -99.74, 708.86, 672.09, 0.00, 0.00, 0.00, 14:27:21.734
86, -191.21, -108.69, 700.43, 656.44, 0.00, 0.00, 0.00, 14:27:21.734
87, -185.23, -104.08, 695.19, 653.33, 0.00, 0.00, 0.00, 14:27:21.763
88, -178.91, -101.48, 697.34, 651.23, 0.00, 0.00, 0.00, 14:27:21.763
89, -180.65, -92.48, 697.49, 656.68, 0.00, 0.00, 0.00, 14:27:21.763
90, -184.33, -102.29, 696.44, 654.40, 0.00, 0.00, 0.00, 14:27:21.764
91, -182.69, -105.70, 696.68, 659.58, 0.00, 0.00, 0.00, 14:27:21.764
92, -175.93, -97.03, 703.20, 660.80, 0.00, 0.00, 0.00, 14:27:21.764
93, -183.38, -104.63, 699.52, 657.21, 0.00, 0.00, 0.00, 14:27:21.793
94, -175.15, -107.95, 697.55, 652.36, 0.00, 0.00, 0.00, 14:27:21.793
95, -172.19, -102.68, 707.33, 665.41, 0.00, 0.00, 0.00, 14:27:21.793
96, -179.85, -106.54, 694.73, 649.25, 0.00, 0.00, 0.00, 14:27:21.793
97, -174.83, -95.33, 705.26, 658.28, 0.00, 0.00, 0.00, 14:27:21.794
98, -181.44, -99.46, 711.57, 659.36, 0.00, 0.00, 0.00, 14:27:21.794
99, -182.87, -104.15, 701.97, 653.50, 0.00, 0.00, 0.00, 14:27:21.823
100, -182.04, -103.56, 704.72, 660.94, 0.00, 0.00, 0.00, 14:27:21.823
101, -182.73, -102.12, 700.92, 659.60, 0.00, 0.00, 0.00, 14:27:21.823
102, -180.96, -104.16, 704.84, 655.80, 0.00, 0.00, 0.00, 14:27:21.824
103, -191.02, -109.36, 696.34, 652.95, 0.00, 0.00, 0.00, 14:27:21.824
104, -189.10, -106.91, 690.39, 655.77, 0.00, 0.00, 0.00, 14:27:21.824
105, -190.90, -107.12, 695.50, 662.17, 0.00, 0.00, 0.00, 14:27:21.853
106, -191.59, -107.39, 696.64, 669.82, 0.00, 0.00, 0.00, 14:27:21.853
107, -198.44, -115.29, 693.56, 658.10, 0.00, 0.00, 0.00, 14:27:21.853
108, -192.46, -104.88, 707.05, 666.77, 0.00, 0.00, 0.00, 14:27:21.853
109, -191.65, -111.79, 695.26, 657.44, 0.00, 0.00, 0.00, 14:27:21.854
110, -190.36, -104.25, 692.12, 663.39, 0.00, 0.00, 0.00, 14:27:21.854
111, -189.77, -110.09, 713.06, 679.66, 0.00, 0.00, 0.00, 14:27:21.884
112, -196.11, -102.52, 695.35, 675.80, 0.00, 0.00, 0.00, 14:27:21.884
113, -190.52, -106.08, 693.34, 664.49, 0.00, 0.00, 0.00, 14:27:21.884
114, -182.38, -99.26, 705.37, 682.74, 0.00, 0.00, 0.00, 14:27:21.884
115, -187.17, -102.73, 704.41, 676.70, 0.00, 0.00, 0.00, 14:27:21.885
116, -185.29, -109.01, 707.10, 672.24, 0.00, 0.00, 0.00, 14:27:21.885
117, -182.36, -101.30, 713.50, 678.61, 0.00, 0.00, 0.00, 14:27:21.913
118, -174.94, -93.85, 713.62, 671.76, 0.00, 0.00, 0.00, 14:27:21.913
119, -178.68, -98.51, 709.61, 672.51, 0.00, 0.00, 0.00, 14:27:21.913
120, -185.35, -96.48, 706.11, 681.39, 0.00, 0.00, 0.00, 14:27:21.913
121, -183.05, -94.21, 710.42, 684.86, 0.00, 0.00, 0.00, 14:27:21.914
122, -184.57, -96.30, 709.13, 679.53, 0.00, 0.00, 0.00, 14:27:21.914
123, -184.25, -99.80, 705.90, 669.45, 0.00, 0.00, 0.00, 14:27:21.943
124, -187.57, -104.74, 699.05, 662.60, 0.00, 0.00, 0.00, 14:27:21.943
125, -191.19, -103.19, 708.44, 675.55, 0.00, 0.00, 0.00, 14:27:21.943
126, -188.77, -101.04, 695.16, 663.07, 0.00, 0.00, 0.00, 14:27:21.943
127, -195.50, -115.76, 684.50, 649.31, 0.00, 0.00, 0.00, 14:27:21.944
128, -190.17, -102.56, 688.33, 652.75, 0.00, 0.00, 0.00, 14:27:21.944
129, -191.58, -104.21, 704.04, 665.29, 0.00, 0.00, 0.00, 14:27:21.973
130, -188.44, -93.29, 702.33, 659.81, 0.00, 0.00, 0.00, 14:27:21.973
131, -188.17, -103.70, 706.67, 668.72, 0.00, 0.00, 0.00, 14:27:21.973
132, -181.35, -97.21, 719.26, 685.93, 0.00, 0.00, 0.00, 14:27:21.973
133, -185.33, -98.05, 704.18, 658.07, 0.00, 0.00, 0.00, 14:27:21.974
134, -186.71, -100.92, 707.56, 670.04, 0.00, 0.00, 0.00, 14:27:21.974
135, -185.15, -96.50, 704.36, 668.48, 0.00, 0.00, 0.00, 14:27:22.003
136, -184.08, -103.68, 703.25, 659.24, 0.00, 0.00, 0.00, 14:27:22.003
137, -191.32, -107.83, 692.09, 644.22, 0.00, 0.00, 0.00, 14:27:22.004
138, -180.04, -95.78, 712.17, 664.14, 0.00, 0.00, 0.00, 14:27:22.004
139, -184.02, -103.05, 700.83, 653.13, 0.00, 0.00, 0.00, 14:27:22.004
140, -192.40, -100.21, 685.78, 643.71, 0.00, 0.00, 0.00, 14:27:22.004
141, -184.26, -102.18, 691.01, 645.56, 0.00, 0.00, 0.00, 14:27:22.033
142, -176.99, -98.57, 704.69, 664.29, 0.00, 0.00, 0.00, 14:27:22.033
143, -186.54, -109.70, 699.51, 654.92, 0.00, 0.00, 0.00, 14:27:22.033
144, -188.03, -100.99, 692.48, 638.20, 0.00, 0.00, 0.00, 14:27:22.033
145, -178.16, -100.33, 692.33, 644.21, 0.00, 0.00, 0.00, 14:27:22.034
146, -196.38, -115.44, 697.41, 640.44, 0.00, 0.00, 0.00, 14:27:22.034
147, -177.51, -95.19, 703.72, 655.88, 0.00, 0.00, 0.00, 14:27:22.063
148, -184.96, -101.74, 703.04, 658.72, 0.00, 0.00, 0.00, 14:27:22.063
149, -172.21, -103.03, 705.31, 656.68, 0.00, 0.00, 0.00, 14:27:22.063
150, -193.61, -112.39, 697.77, 650.28, 0.00, 0.00, 0.00, 14:27:22.064
151, -183.61, -101.38, 705.87, 651.65, 0.00, 0.00, 0.00, 14:27:22.064
152, -183.14, -102.07, 709.52, 658.89, 0.00, 0.00, 0.00, 14:27:22.064
153, -182.24, -94.45, 706.80, 654.85, 0.00, 0.00, 0.00, 14:27:22.093
154, -188.35, -103.87, 704.53, 661.10, 0.00, 0.00, 0.00, 14:27:22.093
155, -192.32, -104.71, 698.54, 648.96, 0.00, 0.00, 0.00, 14:27:22.093
156, -187.30, -108.63, 700.81, 647.73, 0.00, 0.00, 0.00, 14:27:22.094
157, -191.94, -111.95, 688.70, 640.40, 0.00, 0.00, 0.00, 14:27:22.094
158, -179.19, -101.09, 706.59, 662.18, 0.00, 0.00, 0.00, 14:27:22.094
159, -195.59, -106.18, 696.71, 651.92, 0.00, 0.00, 0.00, 14:27:22.123
160, -187.48, -103.07, 703.02, 660.77, 0.00, 0.00, 0.00, 14:27:22.123
161, -192.93, -102.62, 699.73, 654.07, 0.00, 0.00, 0.00, 14:27:22.124
162, -179.38, -96.64, 713.49, 671.81, 0.00, 0.00, 0.00, 14:27:22.124
163, -199.63, -117.49, 694.53, 648.38, 0.00, 0.00, 0.00, 14:27:22.124
164, -194.85, -107.53, 699.79, 656.67, 0.00, 0.00, 0.00, 14:27:22.124
165, -188.12, -103.97, 708.79, 659.90, 0.00, 0.00, 0.00, 14:27:22.153
166, -191.08, -110.91, 707.36, 659.42, 0.00, 0.00, 0.00, 14:27:22.153
167, -194.61, -112.29, 702.51, 659.45, 0.00, 0.00, 0.00, 14:27:22.153
168, -198.35, -107.29, 688.96, 648.86, 0.00, 0.00, 0.00, 14:27:22.153
169, -197.09, -105.53, 691.26, 651.25, 0.00, 0.00, 0.00, 14:27:22.154
170, -190.87, -110.23, 692.30, 654.66, 0.00, 0.00, 0.00, 14:27:22.154
171, -192.34, -102.06, 698.11, 661.00, 0.00, 0.00, 0.00, 14:27:22.183
172, -182.02, -99.70, 698.22, 661.35, 0.00, 0.00, 0.00, 14:27:22.183
173, -188.15, -105.53, 693.23, 655.58, 0.00, 0.00, 0.00, 14:27:22.183
174, -190.91, -106.91, 692.21, 650.64, 0.00, 0.00, 0.00, 14:27:22.183
175, -191.08, -110.32, 693.73, 650.28, 0.00, 0.00, 0.00, 14:27:22.185
176, -182.80, -102.51, 695.11, 657.31, 0.00, 0.00, 0.00, 14:27:22.186
177, -182.92, -103.77, 695.20, 655.49, 0.00, 0.00, 0.00, 14:27:22.213
178, -184.62, -94.50, 706.53, 662.40, 0.00, 0.00, 0.00, 14:27:22.213
179, -193.03, -103.11, 691.84, 651.51, 0.00, 0.00, 0.00, 14:27:22.213
180, -183.70, -101.98, 701.84, 661.32, 0.00, 0.00, 0.00, 14:27:22.213
181, -171.88, -88.43, 716.02, 670.44, 0.00, 0.00, 0.00, 14:27:22.214
182, -193.33, -100.31, 690.46, 651.53, 0.00, 0.00, 0.00, 14:27:22.214
183, -187.11, -93.67, 699.14, 656.41, 0.00, 0.00, 0.00, 14:27:22.243
184, -191.39, -104.77, 693.33, 651.47, 0.00, 0.00, 0.00, 14:27:22.243
185, -179.90, -87.12, 702.37, 660.80, 0.00, 0.00, 0.00, 14:27:22.243
186, -183.43, -95.40, 706.85, 662.39, 0.00, 0.00, 0.00, 14:27:22.243
187, -192.59, -103.81, 695.37, 657.87, 0.00, 0.00, 0.00, 14:27:22.244
188, -187.57, -96.99, 704.76, 660.92, 0.00, 0.00, 0.00, 14:27:22.244
189, -180.33, -91.64, 711.58, 662.83, 0.00, 0.00, 0.00, 14:27:22.273
190, -187.21, -98.52, 718.37, 667.68, 0.00, 0.00, 0.00, 14:27:22.273
191, -179.70, -95.92, 698.80, 661.52, 0.00, 0.00, 0.00, 14:27:22.274
192, -176.32, -91.64, 711.45, 666.21, 0.00, 0.00, 0.00, 14:27:22.274
193, -179.58, -97.36, 682.19, 648.26, 0.00, 0.00, 0.00, 14:27:22.274
194, -175.55, -98.43, 677.71, 643.29, 0.00, 0.00, 0.00, 14:27:22.274
195, -190.56, -106.75, 672.86, 638.60, 0.00, 0.00, 0.00, 14:27:22.303
196, -186.32, -103.37, 683.42, 643.38, 0.00, 0.00, 0.00, 14:27:22.303
197, -179.11, -96.31, 692.60, 658.37, 0.00, 0.00, 0.00, 14:27:22.303
198, -191.85, -113.25, 683.30, 649.78, 0.00, 0.00, 0.00, 14:27:22.304
199, -178.81, -97.57, 690.80, 659.47, 0.00, 0.00, 0.00, 14:27:22.304
200, -181.42, -102.96, 696.94, 663.33, 0.00, 0.00, 0.00, 14:27:22.304
201, -184.89, -101.85, 687.75, 656.18, 0.00, 0.00, 0.00, 14:27:22.334
202, -182.67, -103.62, 697.74, 659.05, 0.00, 0.00, 0.00, 14:27:22.335
203, -190.84, -110.86, 690.32, 657.49, 0.00, 0.00, 0.00, 14:27:22.335
204, -178.01, -96.74, 699.39, 662.67, 0.00, 0.00, 0.00, 14:27:22.335
205, -174.42, -89.32, 706.59, 667.21, 0.00, 0.00, 0.00, 14:27:22.338
206, -185.58, -108.05, 692.65, 659.68, 0.00, 0.00, 0.00, 14:27:22.338
207, -188.51, -106.85, 696.96, 657.28, 0.00, 0.00, 0.00, 14:27:22.364
208, -178.97, -93.24, 704.92, 660.57, 0.00, 0.00, 0.00, 14:27:22.364
209, -183.40, -100.30, 711.08, 659.10, 0.00, 0.00, 0.00, 14:27:22.365
210, -175.71, -96.89, 710.90, 663.02, 0.00, 0.00, 0.00, 14:27:22.365
211, -186.63, -104.73, 697.55, 653.60, 0.00, 0.00, 0.00, 14:27:22.365
212, -172.90, -95.82, 713.23, 668.35, 0.00, 0.00, 0.00, 14:27:22.365
213, -170.72, -86.10, 708.68, 671.99, 0.00, 0.00, 0.00, 14:27:22.395
214, -197.46, -107.28, 698.72, 656.74, 0.00, 0.00, 0.00, 14:27:22.395
215, -182.51, -96.99, 699.14, 666.88, 0.00, 0.00, 0.00, 14:27:22.396
216, -163.42, -77.30, 689.71, 655.72, 0.00, 0.00, 0.00, 14:27:22.396
217, -168.00, -84.57, 708.29, 670.49, 0.00, 0.00, 0.00, 14:27:22.396
218, -170.39, -83.89, 696.23, 651.05, 0.00, 0.00, 0.00, 14:27:22.397
219, -171.59, -84.49, 702.87, 654.99, 0.00, 0.00, 0.00, 14:27:22.423
220, -167.49, -77.49, 699.85, 657.45, 0.00, 0.00, 0.00, 14:27:22.423
221, -170.27, -84.76, 706.46, 654.45, 0.00, 0.00, 0.00, 14:27:22.423
222, -175.96, -90.35, 697.81, 652.42, 0.00, 0.00, 0.00, 14:27:22.423
223, -183.83, -95.62, 684.68, 644.91, 0.00, 0.00, 0.00, 14:27:22.424
224, -180.06, -90.86, 688.66, 648.80, 0.00, 0.00, 0.00, 14:27:22.424
225, -173.21, -83.71, 695.60, 658.70, 0.00, 0.00, 0.00, 14:27:22.453
226, -179.07, -86.47, 701.88, 656.49, 0.00, 0.00, 0.00, 14:27:22.453
227, -171.18, -82.37, 706.57, 663.78, 0.00, 0.00, 0.00, 14:27:22.454
228, -185.87, -92.42, 702.89, 664.62, 0.00, 0.00, 0.00, 14:27:22.454
229, -158.91, -78.06, 720.15, 681.67, 0.00, 0.00, 0.00, 14:27:22.454
230, -190.42, -102.69, 689.46, 641.25, 0.00, 0.00, 0.00, 14:27:22.454
231, -187.79, -95.78, 698.37, 648.31, 0.00, 0.00, 0.00, 14:27:22.483
232, -173.67, -90.12, 695.59, 644.78, 0.00, 0.00, 0.00, 14:27:22.483
233, -184.20, -99.28, 693.61, 650.67, 0.00, 0.00, 0.00, 14:27:22.483
234, -181.48, -90.19, 700.43, 657.91, 0.00, 0.00, 0.00, 14:27:22.484
235, -181.03, -93.45, 698.73, 655.97, 0.00, 0.00, 0.00, 14:27:22.484
236, -180.55, -91.26, 697.89, 657.85, 0.00, 0.00, 0.00, 14:27:22.485
237, -177.68, -86.93, 694.84, 651.09, 0.00, 0.00, 0.00, 14:27:22.513
238, -178.67, -96.71, 701.96, 664.58, 0.00, 0.00, 0.00, 14:27:22.513
239, -178.04, -95.16, 703.60, 657.73, 0.00, 0.00, 0.00, 14:27:22.513
240, -179.60, -101.68, 691.33, 642.20, 0.00, 0.00, 0.00, 14:27:22.513
241, -186.84, -104.82, 699.74, 655.57, 0.00, 0.00, 0.00, 14:27:22.514
242, -176.88, -97.85, 710.00, 666.43, 0.00, 0.00, 0.00, 14:27:22.514
243, -187.02, -105.03, 685.53, 634.24, 0.00, 0.00, 0.00, 14:27:22.543
244, -172.57, -93.31, 703.27, 653.38, 0.00, 0.00, 0.00, 14:27:22.543
245, -174.13, -90.38, 694.56, 649.82, 0.00, 0.00, 0.00, 14:27:22.543
246, -177.84, -93.58, 689.20, 646.47, 0.00, 0.00, 0.00, 14:27:22.544
247, -179.78, -94.57, 692.88, 662.15, 0.00, 0.00, 0.00, 14:27:22.544
248, -177.48, -94.74, 695.72, 666.81, 0.00, 0.00, 0.00, 14:27:22.544
249, -179.84, -92.41, 706.25, 664.51, 0.00, 0.00, 0.00, 14:27:22.573
250, -184.18, -101.84, 692.79, 653.23, 0.00, 0.00, 0.00, 14:27:22.573
251, -178.44, -94.21, 698.41, 661.81, 0.00, 0.00, 0.00, 14:27:22.573
252, -179.85, -92.66, 713.88, 672.91, 0.00, 0.00, 0.00, 14:27:22.574
253, -177.84, -98.73, 717.23, 679.28, 0.00, 0.00, 0.00, 14:27:22.574
254, -187.15, -97.33, 706.01, 670.97, 0.00, 0.00, 0.00, 14:27:22.574
0, -185.17, -103.37, 695.35, 671.78, 0.00, 0.00, 0.00, 14:27:22.575
1, -180.65, -97.72, 703.88, 679.73, 0.00, 0.00, 0.00, 14:27:22.603
2, -192.14, -105.08, 698.25, 677.16, 0.00, 0.00, 0.00, 14:27:22.603
3, -183.47, -100.29, 704.77, 676.35, 0.00, 0.00, 0.00, 14:27:22.603
4, -188.94, -109.60, 703.94, 670.67, 0.00, 0.00, 0.00, 14:27:22.604
5, -188.53, -104.18, 710.31, 676.17, 0.00, 0.00, 0.00, 14:27:22.604
6, -179.49, -96.02, 715.63, 680.93, 0.00, 0.00, 0.00, 14:27:22.604
7, -176.11, -98.77, 713.33, 681.58, 0.00, 0.00, 0.00, 14:27:22.633
8, -199.42, -122.92, 683.11, 654.45, 0.00, 0.00, 0.00, 14:27:22.633
9, -182.43, -99.19, 697.32, 668.54, 0.00, 0.00, 0.00, 14:27:22.634
10, -195.17, -107.36, 698.72, 665.45, 0.00, 0.00, 0.00, 14:27:22.634
11, -200.38, -111.61, 706.14, 682.69, 0.00, 0.00, 0.00, 14:27:22.634
12, -195.62, -112.12, 699.02, 663.42, 0.00, 0.00, 0.00, 14:27:22.634
13, -178.15, -96.29, 697.70, 660.22, 0.00, 0.00, 0.00, 14:27:22.663
14, -189.61, -113.23, 704.49, 663.77, 0.00, 0.00, 0.00, 14:27:22.663
15, -191.44, -118.82, 688.67, 648.78, 0.00, 0.00, 0.00, 14:27:22.664
16, -187.31, -110.30, 699.19, 650.91, 0.00, 0.00, 0.00, 14:27:22.664
17, -182.53, -108.74, 704.07, 650.19, 0.00, 0.00, 0.00, 14:27:22.664
18, -191.53, -112.39, 704.40, 660.00, 0.00, 0.00, 0.00, 14:27:22.664
19, -196.05, -108.77, 699.37, 652.79, 0.00, 0.00, 0.00, 14:27:22.693
20, -189.44, -107.28, 708.02, 658.38, 0.00, 0.00, 0.00, 14:27:22.693
21, -182.20, -101.18, 711.90, 663.14, 0.00, 0.00, 0.00, 14:27:22.694
22, -184.92, -111.23, 703.53, 658.53, 0.00, 0.00, 0.00, 14:27:22.694
23, -182.02, -100.82, 720.61, 677.92, 0.00, 0.00, 0.00, 14:27:22.694
24, -187.29, -102.76, 704.84, 660.74, 0.00, 0.00, 0.00, 14:27:22.694
25, -189.59, -113.18, 699.04, 653.17, 0.00, 0.00, 0.00, 14:27:22.723
26, -176.40, -101.39, 702.21, 656.34, 0.00, 0.00, 0.00, 14:27:22.724
27, -184.39, -102.50, 707.05, 663.73, 0.00, 0.00, 0.00, 14:27:22.724
28, -189.71, -102.14, 695.56, 652.87, 0.00, 0.00, 0.00, 14:27:22.724
29, -195.91, -107.23, 699.63, 652.57, 0.00, 0.00, 0.00, 14:27:22.725
30, -187.26, -101.07, 703.22, 659.12, 0.00, 0.00, 0.00, 14:27:22.725
31, -191.33, -106.51, 700.97, 659.06, 0.00, 0.00, 0.00, 14:27:22.753
32, -183.43, -100.50, 710.10, 667.38, 0.00, 0.00, 0.00, 14:27:22.753
33, -199.62, -116.74, 698.34, 655.83, 0.00, 0.00, 0.00, 14:27:22.753
34, -190.02, -107.35, 689.72, 651.07, 0.00, 0.00, 0.00, 14:27:22.753
35, -188.70, -105.92, 696.39, 655.65, 0.00, 0.00, 0.00, 14:27:22.754
36, -172.34, -89.91, 705.31, 664.41, 0.00, 0.00, 0.00, 14:27:22.754
37, -184.67, -103.32, 695.76, 651.91, 0.00, 0.00, 0.00, 14:27:22.782
38, -191.22, -108.70, 689.09, 650.32, 0.00, 0.00, 0.00, 14:27:22.783
39, -190.23, -102.54, 695.40, 647.27, 0.00, 0.00, 0.00, 14:27:22.783
40, -188.71, -102.27, 709.97, 658.85, 0.00, 0.00, 0.00, 14:27:22.783
41, -189.37, -98.51, 696.09, 647.30, 0.00, 0.00, 0.00, 14:27:22.784
42, -185.00, -97.76, 703.24, 663.66, 0.00, 0.00, 0.00, 14:27:22.784
43, -186.92, -99.20, 704.85, 666.32, 0.00, 0.00, 0.00, 14:27:22.813
44, -187.93, -102.19, 674.87, 635.21, 0.00, 0.00, 0.00, 14:27:22.813
45, -180.70, -99.44, 690.85, 644.33, 0.00, 0.00, 0.00, 14:27:22.814
46, -176.09, -99.53, 701.29, 652.23, 0.00, 0.00, 0.00, 14:27:22.814
47, -181.21, -101.11, 694.40, 649.41, 0.00, 0.00, 0.00, 14:27:22.814
48, -187.58, -98.33, 706.43, 659.02, 0.00, 0.00, 0.00, 14:27:22.814
49, -188.86, -100.78, 690.99, 651.36, 0.00, 0.00, 0.00, 14:27:22.843
50, -190.45, -109.01, 682.17, 639.06, 0.00, 0.00, 0.00, 14:27:22.843
51, -188.03, -108.48, 691.83, 650.79, 0.00, 0.00, 0.00, 14:27:22.843
52, -189.58, -106.44, 694.49, 656.17, 0.00, 0.00, 0.00, 14:27:22.843
53, -188.30, -104.50, 707.77, 665.44, 0.00, 0.00, 0.00, 14:27:22.844
54, -195.48, -105.67, 700.38, 659.07, 0.00, 0.00, 0.00, 14:27:22.844
55, -179.36, -99.66, 702.17, 662.15, 0.00, 0.00, 0.00, 14:27:22.872
56, -184.38, -108.09, 703.10, 663.40, 0.00, 0.00, 0.00, 14:27:22.873
57, -184.71, -107.17, 698.58, 656.01, 0.00, 0.00, 0.00, 14:27:22.873
58, -192.58, -105.22, 692.39, 651.89, 0.00, 0.00, 0.00, 14:27:22.873
59, -192.43, -108.99, 689.52, 652.24, 0.00, 0.00, 0.00, 14:27:22.874
60, -181.51, -97.63, 710.97, 671.81, 0.00, 0.00, 0.00, 14:27:22.874
61, -190.58, -107.98, 695.02, 657.39, 0.00, 0.00, 0.00, 14:27:22.903
62, -201.86, -123.75, 678.59, 641.50, 0.00, 0.00, 0.00, 14:27:22.903
63, -182.14, -106.39, 700.10, 664.63, 0.00, 0.00, 0.00, 14:27:22.903
64, -194.02, -109.57, 693.88, 660.95, 0.00, 0.00, 0.00, 14:27:22.904
65, -179.57, -94.94, 701.78, 665.07, 0.00, 0.00, 0.00, 14:27:22.904
66, -171.08, -86.26, 700.22, 664.05, 0.00, 0.00, 0.00, 14:27:22.904
67, -185.14, -107.09, 700.40, 655.14, 0.00, 0.00, 0.00, 14:27:22.933
68, -182.21, -101.58, 708.95, 666.24, 0.00, 0.00, 0.00, 14:27:22.933
69, -182.48, -100.99, 698.87, 660.52, 0.00, 0.00, 0.00, 14:27:22.933
70, -176.23, -91.65, 704.91, 652.53, 0.00, 0.00, 0.00, 14:27:22.934
71, -183.59, -98.18, 707.22, 667.31, 0.00, 0.00, 0.00, 14:27:22.934
72, -173.42, -93.60, 713.17, 666.74, 0.00, 0.00, 0.00, 14:27:22.934
73, -171.26, -87.41, 699.22, 640.53, 0.00, 0.00, 0.00, 14:27:22.963
74, -180.87, -95.61, 691.89, 639.88, 0.00, 0.00, 0.00, 14:27:22.963
75, -186.58, -105.18, 693.36, 651.84, 0.00, 0.00, 0.00, 14:27:22.964
76, -175.93, -93.42, 701.88, 654.56, 0.00, 0.00, 0.00, 14:27:22.964
77, -182.94, -98.24, 686.48, 651.42, 0.00, 0.00, 0.00, 14:27:22.965
78, -178.69, -99.41, 692.28, 654.65, 0.00, 0.00, 0.00, 14:27:22.965
79, -175.43, -92.23, 701.13, 662.04, 0.00, 0.00, 0.00, 14:27:22.993
80, -181.17, -94.29, 696.05, 656.32, 0.00, 0.00, 0.00, 14:27:22.993
81, -194.64, -111.74, 686.65, 648.67, 0.00, 0.00, 0.00, 14:27:22.993
82, -182.76, -101.66, 697.81, 657.28, 0.00, 0.00, 0.00, 14:27:22.993
83, -178.22, -97.32, 702.36, 663.50, 0.00, 0.00, 0.00, 14:27:22.994
84, -184.59, -100.73, 698.14, 659.97, 0.00, 0.00, 0.00, 14:27:22.994
85, -179.47, -94.90, 704.42, 664.46, 0.00, 0.00, 0.00, 14:27:23.023
86, -189.53, -101.42, 699.69, 655.81, 0.00, 0.00, 0.00, 14:27:23.023
87, -183.01, -104.32, 702.47, 663.56, 0.00, 0.00, 0.00, 14:27:23.023
88, -184.59, -106.15, 700.71, 660.30, 0.00, 0.00, 0.00, 14:27:23.024
89, -181.06, -101.81, 685.18, 645.34, 0.00, 0.00, 0.00, 14:27:23.024
90, -176.40, -99.93, 693.07, 654.10, 0.00, 0.00, 0.00, 14:27:23.024
91, -181.27, -96.55, 692.84, 657.69, 0.00, 0.00, 0.00, 14:27:23.054
92, -183.01, -99.15, 697.77, 655.27, 0.00, 0.00, 0.00, 14:27:23.054
93, -180.02, -99.93, 705.52, 663.85, 0.00, 0.00, 0.00, 14:27:23.054
94, -179.54, -101.07, 696.18, 657.78, 0.00, 0.00, 0.00, 14:27:23.055
95, -174.97, -95.80, 697.92, 663.31, 0.00, 0.00, 0.00, 14:27:23.055
96, -179.46, -99.45, 700.61, 658.67, 0.00, 0.00, 0.00, 14:27:23.055
97, -182.72, -98.20, 698.42, 649.34, 0.00, 0.00, 0.00, 14:27:23.083
98, -188.01, -100.29, 699.32, 649.82, 0.00, 0.00, 0.00, 14:27:23.083
99, -189.21, -100.56, 691.90, 643.71, 0.00, 0.00, 0.00, 14:27:23.083
100, -168.09, -83.21, 711.19, 667.14, 0.00, 0.00, 0.00, 14:27:23.083
101, -188.13, -103.14, 705.45, 665.31, 0.00, 0.00, 0.00, 14:27:23.084
102, -177.42, -104.09, 704.43, 653.16, 0.00, 0.00, 0.00, 14:27:23.084
103, -190.32, -116.90, 697.79, 649.87, 0.00, 0.00, 0.00, 14:27:23.113
104, -186.04, -109.87, 702.07, 660.79, 0.00, 0.00, 0.00, 14:27:23.113
105, -185.78, -107.75, 703.89, 664.71, 0.00, 0.00, 0.00, 14:27:23.113
106, -185.51, -108.68, 713.64, 671.53, 0.00, 0.00, 0.00, 14:27:23.113
107, -180.60, -102.81, 721.87, 673.95, 0.00, 0.00, 0.00, 14:27:23.114
108, -184.19, -105.30, 706.34, 664.56, 0.00, 0.00, 0.00, 14:27:23.114
109, -181.08, -97.13, 703.14, 663.06, 0.00, 0.00, 0.00, 14:27:23.143
110, -173.88, -95.04, 709.78, 667.43, 0.00, 0.00, 0.00, 14:27:23.143
111, -199.37, -117.45, 703.26, 666.89, 0.00, 0.00, 0.00, 14:27:23.144
112, -193.41, -108.56, 696.38, 657.76, 0.00, 0.00, 0.00, 14:27:23.144
113, -190.48, -99.89, 685.04, 644.15, 0.00, 0.00, 0.00, 14:27:23.144
114, -192.91, -109.97, 686.83, 644.54, 0.00, 0.00, 0.00, 14:27:23.144
115, -188.87, -106.20, 689.19, 646.66, 0.00, 0.00, 0.00, 14:27:23.173
116, -191.65, -101.18, 693.98, 653.69, 0.00, 0.00, 0.00, 14:27:23.173
117, -186.75, -98.55, 700.14, 652.07, 0.00, 0.00, 0.00, 14:27:23.173
118, -193.15, -114.73, 688.11, 649.89, 0.00, 0.00, 0.00, 14:27:23.173
119, -191.60, -102.89, 691.70, 650.87, 0.00, 0.00, 0.00, 14:27:23.174
120, -180.50, -94.30, 709.68, 672.65, 0.00, 0.00, 0.00, 14:27:23.174
121, -202.67, -115.49, 690.02, 653.65, 0.00, 0.00, 0.00, 14:27:23.203
122, -202.25, -119.67, 691.54, 652.16, 0.00, 0.00, 0.00, 14:27:23.203
123, -192.23, -107.26, 701.42, 664.99, 0.00, 0.00, 0.00, 14:27:23.204
124, -195.85, -118.18, 704.17, 666.37, 0.00, 0.00, 0.00, 14:27:23.204
125, -191.54, -112.23, 707.55, 666.51, 0.00, 0.00, 0.00, 14:27:23.205
126, -193.73, -112.17, 696.69, 655.65, 0.00, 0.00, 0.00, 14:27:23.205
127, -188.11, -105.26, 699.59, 649.52, 0.00, 0.00, 0.00, 14:27:23.233
128, -185.12, -104.40, 701.77, 659.30, 0.00, 0.00, 0.00, 14:27:23.233
129, -189.48, -106.31, 709.13, 660.89, 0.00, 0.00, 0.00, 14:27:23.233
130, -184.85, -104.91, 709.72, 660.08, 0.00, 0.00, 0.00, 14:27:23.234
131, -198.94, -105.00, 700.42, 648.56, 0.00, 0.00, 0.00, 14:27:23.234
132, -183.06, -93.15, 707.39, 665.73, 0.00, 0.00, 0.00, 14:27:23.234
133, -203.73, -112.96, 667.27, 623.60, 0.00, 0.00, 0.00, 14:27:23.263
134, -190.66, -105.54, 683.48, 641.61, 0.00, 0.00, 0.00, 14:27:23.263
135, -187.04, -105.84, 693.11, 654.69, 0.00, 0.00, 0.00, 14:27:23.264
136, -189.94, -95.97, 690.63, 658.18, 0.00, 0.00, 0.00, 14:27:23.264
137, -182.85, -96.65, 704.12, 664.71, 0.00, 0.00, 0.00, 14:27:23.264
138, -190.15, -105.57, 698.82, 657.91, 0.00, 0.00, 0.00, 14:27:23.264
139, -167.77, -88.97, 730.57, 687.95, 0.00, 0.00, 0.00, 14:27:23.294
140, -180.91, -106.53, 717.04, 671.53, 0.00, 0.00, 0.00, 14:27:23.294
141, -185.34, -107.34, 684.10, 655.37, 0.00, 0.00, 0.00, 14:27:23.295
142, -195.51, -113.50, 689.58, 665.06, 0.00, 0.00, 0.00, 14:27:23.295
143, -194.40, -115.92, 705.19, 681.01, 0.00, 0.00, 0.00, 14:27:23.295
144, -180.91, -90.73, 716.95, 685.82, 0.00, 0.00, 0.00, 14:27:23.296
145, -156.14, -66.62, 713.90, 678.85, 0.00, 0.00, 0.00, 14:27:23.323
146, -157.49, -68.77, 704.17, 675.47, 0.00, 0.00, 0.00, 14:27:23.324
147, -154.50, -65.64, 684.37, 651.65, 0.00, 0.00, 0.00, 14:27:23.324
148, -150.91, -60.79, 690.53, 655.36, 0.00, 0.00, 0.00, 14:27:23.324
149, -133.56, -43.47, 700.01, 659.49, 0.00, 0.00, 0.00, 14:27:23.324
150, -163.09, -71.59, 687.65, 654.01, 0.00, 0.00, 0.00, 14:27:23.324
151, -168.77, -75.96, 697.64, 666.73, 0.00, 0.00, 0.00, 14:27:23.353
152, -172.06, -82.51, 698.21, 665.23, 0.00, 0.00, 0.00, 14:27:23.353
153, -166.56, -77.28, 712.60, 675.49, 0.00, 0.00, 0.00, 14:27:23.353
154, -164.02, -73.78, 708.53, 666.16, 0.00, 0.00, 0.00, 14:27:23.354
155, -197.44, -111.45, 676.94, 645.72, 0.00, 0.00, 0.00, 14:27:23.354
156, -188.35, -102.80, 694.56, 657.30, 0.00, 0.00, 0.00, 14:27:23.354
157, -195.47, -105.23, 698.45, 657.57, 0.00, 0.00, 0.00, 14:27:23.383
158, -206.12, -116.00, 686.69, 647.39, 0.00, 0.00, 0.00, 14:27:23.383
159, -205.64, -114.24, 688.60, 651.85, 0.00, 0.00, 0.00, 14:27:23.384
160, -206.42, -119.44, 698.35, 664.23, 0.00, 0.00, 0.00, 14:27:23.384
161, -215.99, -124.17, 703.85, 667.91, 0.00, 0.00, 0.00, 14:27:23.384
162, -212.16, -124.89, 695.54, 654.15, 0.00, 0.00, 0.00, 14:27:23.384
163, -214.53, -127.22, 689.22, 653.04, 0.00, 0.00, 0.00, 14:27:23.413
164, -208.40, -123.66, 703.91, 666.18, 0.00, 0.00, 0.00, 14:27:23.413
165, -213.30, -122.29, 714.65, 669.88, 0.00, 0.00, 0.00, 14:27:23.414
166, -197.36, -114.06, 716.83, 679.10, 0.00, 0.00, 0.00, 14:27:23.414
167, -196.76, -115.23, 717.91, 674.61, 0.00, 0.00, 0.00, 14:27:23.414
168, -198.32, -116.31, 712.91, 672.87, 0.00, 0.00, 0.00, 14:27:23.414
169, -193.92, -103.74, 714.11, 672.81, 0.00, 0.00, 0.00, 14:27:23.443
170, -189.17, -110.26, 715.06, 675.09, 0.00, 0.00, 0.00, 14:27:23.443
171, -188.87, -103.68, 713.27, 666.26, 0.00, 0.00, 0.00, 14:27:23.443
172, -187.94, -102.88, 702.35, 651.06, 0.00, 0.00, 0.00, 14:27:23.443
173, -178.31, -96.06, 693.55, 653.69, 0.00, 0.00, 0.00, 14:27:23.444
174, -182.83, -95.79, 696.12, 657.37, 0.00, 0.00, 0.00, 14:27:23.444
175, -188.15, -102.04, 707.13, 661.17, 0.00, 0.00, 0.00, 14:27:23.473
176, -179.24, -94.57, 699.86, 661.58, 0.00, 0.00, 0.00, 14:27:23.473
177, -186.12, -96.84, 690.14, 650.72, 0.00, 0.00, 0.00, 14:27:23.473
178, -179.36, -91.16, 699.74, 655.66, 0.00, 0.00, 0.00, 14:27:23.474
179, -179.48, -100.28, 702.19, 660.05, 0.00, 0.00, 0.00, 14:27:23.474
180, -174.76, -93.19, 715.02, 671.60, 0.00, 0.00, 0.00, 14:27:23.474
181, -179.87, -102.14, 705.81, 664.84, 0.00, 0.00, 0.00, 14:27:23.503
182, -182.95, -98.25, 695.76, 658.08, 0.00, 0.00, 0.00, 14:27:23.503
183, -174.22, -91.13, 699.55, 662.62, 0.00, 0.00, 0.00, 14:27:23.533
184, -175.98, -89.43, 703.74, 662.06, 0.00, 0.00, 0.00, 14:27:23.533
185, -185.05, -97.12, 698.03, 659.45, 0.00, 0.00, 0.00, 14:27:23.534
186, -169.94, -87.70, 705.83, 660.05, 0.00, 0.00, 0.00, 14:27:23.534
187, -180.35, -100.17, 701.61, 656.40, 0.00, 0.00, 0.00, 14:27:23.544
188, -179.28, -100.89, 705.65, 670.82, 0.00, 0.00, 0.00, 14:27:23.544
189, -182.51, -97.15, 695.69, 653.55, 0.00, 0.00, 0.00, 14:27:23.544
190, -181.73, -102.63, 702.72, 654.75, 0.00, 0.00, 0.00, 14:27:23.544
191, -176.20, -101.88, 705.11, 649.57, 0.00, 0.00, 0.00, 14:27:23.563
192, -181.71, -106.61, 697.63, 647.18, 0.00, 0.00, 0.00, 14:27:23.563
193, -190.08, -109.99, 693.35, 649.51, 0.00, 0.00, 0.00, 14:27:23.563
194, -187.87, -111.42, 699.06, 654.60, 0.00, 0.00, 0.00, 14:27:23.563
195, -190.15, -105.89, 701.46, 652.86, 0.00, 0.00, 0.00, 14:27:23.564
196, -200.50, -118.34, 697.15, 653.22, 0.00, 0.00, 0.00, 14:27:23.564
197, -193.17, -111.73, 694.81, 649.06, 0.00, 0.00, 0.00, 14:27:23.564
198, -182.52, -102.57, 709.20, 658.36, 0.00, 0.00, 0.00, 14:27:23.565
199, -185.57, -98.48, 695.71, 662.94, 0.00, 0.00, 0.00, 14:27:23.593
200, -191.74, -106.44, 682.99, 653.04, 0.00, 0.00, 0.00, 14:27:23.593
201, -192.96, -108.35, 693.88, 652.95, 0.00, 0.00, 0.00, 14:27:23.594
202, -187.76, -100.03, 685.68, 648.79, 0.00, 0.00, 0.00, 14:27:23.594
203, -185.67, -100.57, 688.91, 648.87, 0.00, 0.00, 0.00, 14:27:23.594
204, -178.34, -91.21, 705.34, 666.64, 0.00, 0.00, 0.00, 14:27:23.594
205, -191.95, -108.92, 694.90, 657.61, 0.00, 0.00, 0.00, 14:27:23.623
206, -184.35, -96.48, 704.29, 665.03, 0.00, 0.00, 0.00, 14:27:23.623
207, -195.12, -113.47, 694.53, 646.60, 0.00, 0.00, 0.00, 14:27:23.623
208, -184.71, -104.32, 699.95, 660.93, 0.00, 0.00, 0.00, 14:27:23.624
209, -183.85, -99.11, 704.02, 667.72, 0.00, 0.00, 0.00, 14:27:23.624
210, -188.43, -101.57, 693.66, 660.06, 0.00, 0.00, 0.00, 14:27:23.624
211, -189.80, -104.08, 689.59, 649.94, 0.00, 0.00, 0.00, 14:27:23.653
212, -188.73, -102.77, 692.52, 646.74, 0.00, 0.00, 0.00, 14:27:23.653
213, -184.57, -104.29, 697.07, 657.90, 0.00, 0.00, 0.00, 14:27:23.653
214, -187.92, -106.45, 699.94, 661.55, 0.00, 0.00, 0.00, 14:27:23.654
215, -192.95, -101.66, 699.46, 666.54, 0.00, 0.00, 0.00, 14:27:23.654
216, -188.85, -98.01, 702.63, 664.90, 0.00, 0.00, 0.00, 14:27:23.655
217, -185.14, -101.33, 708.70, 661.55, 0.00, 0.00, 0.00, 14:27:23.683
218, -186.28, -97.84, 708.91, 668.85, 0.00, 0.00, 0.00, 14:27:23.683
219, -182.81, -97.66, 710.91, 673.12, 0.00, 0.00, 0.00, 14:27:23.683
220, -182.78, -102.98, 702.39, 664.03, 0.00, 0.00, 0.00, 14:27:23.684
221, -190.89, -105.35, 699.37, 662.77, 0.00, 0.00, 0.00, 14:27:23.684
222, -190.44, -101.01, 702.39, 666.39, 0.00, 0.00, 0.00, 14:27:23.684
223, -191.04, -105.08, 692.48, 658.34, 0.00, 0.00, 0.00, 14:27:23.713
224, -194.09, -103.62, 691.85, 648.83, 0.00, 0.00, 0.00, 14:27:23.713
225, -179.14, -101.73, 704.51, 665.91, 0.00, 0.00, 0.00, 14:27:23.714
226, -186.76, -100.93, 696.61, 656.21, 0.00, 0.00, 0.00, 14:27:23.714
227, -184.70, -97.40, 695.08, 657.05, 0.00, 0.00, 0.00, 14:27:23.714
228, -192.93, -106.73, 689.31, 653.22, 0.00, 0.00, 0.00, 14:27:23.714
229, -188.44, -100.57, 683.12, 639.85, 0.00, 0.00, 0.00, 14:27:23.743
230, -185.93, -96.18, 695.26, 650.08, 0.00, 0.00, 0.00, 14:27:23.743
231, -189.01, -109.43, 687.81, 654.11, 0.00, 0.00, 0.00, 14:27:23.743
232, -190.63, -101.74, 689.42, 653.73, 0.00, 0.00, 0.00, 14:27:23.743
233, -189.82, -104.94, 695.02, 658.00, 0.00, 0.00, 0.00, 14:27:23.744
234, -194.91, -108.59, 702.20, 658.00, 0.00, 0.00, 0.00, 14:27:23.744
235, -190.30, -112.81, 707.52, 663.51, 0.00, 0.00, 0.00, 14:27:23.773
236, -188.12, -101.41, 699.86, 659.88, 0.00, 0.00, 0.00, 14:27:23.773
237, -189.59, -100.22, 698.99, 657.58, 0.00, 0.00, 0.00, 14:27:23.774
238, -193.66, -108.39, 697.23, 648.46, 0.00, 0.00, 0.00, 14:27:23.774
239, -185.31, -99.68, 699.77, 654.62, 0.00, 0.00, 0.00, 14:27:23.774
240, -183.22, -96.93, 703.63, 659.28, 0.00, 0.00, 0.00, 14:27:23.775
241, -183.04, -99.69, 702.61, 665.53, 0.00, 0.00, 0.00, 14:27:23.803
242, -186.39, -106.99, 697.04, 657.70, 0.00, 0.00, 0.00, 14:27:23.803
243, -178.91, -97.95, 702.91, 667.78, 0.00, 0.00, 0.00, 14:27:23.803
244, -185.89, -104.44, 699.91, 658.35, 0.00, 0.00, 0.00, 14:27:23.803
245, -197.79, -113.51, 692.02, 638.78, 0.00, 0.00, 0.00, 14:27:23.804
246, -195.76, -111.48, 699.02, 655.36, 0.00, 0.00, 0.00, 14:27:23.804
247, -186.52, -103.85, 704.49, 658.65, 0.00, 0.00, 0.00, 14:27:23.833
248, -187.36, -102.71, 702.10, 654.13, 0.00, 0.00, 0.00, 14:27:23.833
249, -192.44, -109.90, 681.00, 636.69, 0.00, 0.00, 0.00, 14:27:23.833
250, -188.11, -100.32, 688.60, 654.04, 0.00, 0.00, 0.00, 14:27:23.834
251, -177.01, -99.31, 694.46, 658.16, 0.00, 0.00, 0.00, 14:27:23.834
252, -190.56, -106.76, 688.84, 651.73, 0.00, 0.00, 0.00, 14:27:23.834
253, -177.16, -90.06, 702.90, 661.42, 0.00, 0.00, 0.00, 14:27:23.863
254, -185.72, -108.08, 706.99, 667.73, 0.00, 0.00, 0.00, 14:27:23.863
0, -187.05, -107.23, 685.42, 647.06, 0.00, 0.00, 0.00, 14:27:23.863
1, -177.36, -95.77, 691.01, 652.81, 0.00, 0.00, 0.00, 14:27:23.864
2, -174.52, -92.21, 699.45, 666.06, 0.00, 0.00, 0.00, 14:27:23.864
3, -191.19, -110.73, 678.47, 633.33, 0.00, 0.00, 0.00, 14:27:23.893
4, -186.46, -108.13, 684.90, 639.49, 0.00, 0.00, 0.00, 14:27:23.893
5, -181.26, -109.93, 693.64, 657.14, 0.00, 0.00, 0.00, 14:27:23.893
6, -182.75, -105.53, 687.39, 649.15, 0.00, 0.00, 0.00, 14:27:23.894
7, -183.68, -95.00, 687.39, 654.26, 0.00, 0.00, 0.00, 14:27:23.894
8, -180.48, -90.10, 691.33, 659.08, 0.00, 0.00, 0.00, 14:27:23.894
9, -183.62, -94.11, 691.18, 658.27, 0.00, 0.00, 0.00, 14:27:23.924
10, -177.22, -102.19, 708.74, 668.50, 0.00, 0.00, 0.00, 14:27:23.924
11, -185.87, -108.23, 690.82, 657.40, 0.00, 0.00, 0.00, 14:27:23.924
12, -181.17, -96.56, 704.94, 664.64, 0.00, 0.00, 0.00, 14:27:23.925
13, -194.64, -108.80, 696.06, 659.22, 0.00, 0.00, 0.00, 14:27:23.925
14, -178.12, -97.46, 706.83, 666.04, 0.00, 0.00, 0.00, 14:27:23.925
15, -185.42, -103.74, 693.81, 653.39, 0.00, 0.00, 0.00, 14:27:23.953
16, -183.51, -103.66, 691.48, 651.23, 0.00, 0.00, 0.00, 14:27:23.954
17, -175.58, -95.52, 695.60, 656.83, 0.00, 0.00, 0.00, 14:27:23.954
18, -187.88, -103.00, 701.59, 651.02, 0.00, 0.00, 0.00, 14:27:23.954
19, -188.39, -103.72, 703.56, 653.41, 0.00, 0.00, 0.00, 14:27:23.955
20, -173.04, -92.50, 698.68, 663.02, 0.00, 0.00, 0.00, 14:27:23.955
21, -172.63, -101.57, 706.73, 671.90, 0.00, 0.00, 0.00, 14:27:23.983
22, -190.67, -104.77, 694.10, 655.42, 0.00, 0.00, 0.00, 14:27:23.984
23, -194.71, -121.22, 686.68, 654.58, 0.00, 0.00, 0.00, 14:27:23.984
24, -191.66, -110.10, 694.55, 666.36, 0.00, 0.00, 0.00, 14:27:23.984
25, -185.61, -112.73, 712.26, 682.13, 0.00, 0.00, 0.00, 14:27:23.984
26, -192.05, -109.50, 717.02, 679.53, 0.00, 0.00, 0.00, 14:27:23.984
27, -197.64, -129.31, 703.85, 666.63, 0.00, 0.00, 0.00, 14:27:24.014
28, -193.96, -115.16, 700.05, 666.30, 0.00, 0.00, 0.00, 14:27:24.014
29, -198.18, -118.75, 697.93, 663.55, 0.00, 0.00, 0.00, 14:27:24.014
30, -200.85, -124.46, 696.16, 667.71, 0.00, 0.00, 0.00, 14:27:24.014
31, -198.01, -124.37, 693.47, 658.64, 0.00, 0.00, 0.00, 14:27:24.014
32, -198.87, -117.49, 690.30, 663.40, 0.00, 0.00, 0.00, 14:27:24.015
33, -191.81, -109.06, 696.91, 662.80, 0.00, 0.00, 0.00, 14:27:24.043
34, -184.10, -97.93, 711.24, 677.07, 0.00, 0.00, 0.00, 14:27:24.044
35, -192.38, -109.03, 704.03, 669.62, 0.00, 0.00, 0.00, 14:27:24.044
36, -195.35, -111.60, 703.01, 671.35, 0.00, 0.00, 0.00, 14:27:24.044
37, -193.10, -107.27, 707.76, 668.27, 0.00, 0.00, 0.00, 14:27:24.044
38, -190.74, -105.38, 704.83, 665.49, 0.00, 0.00, 0.00, 14:27:24.044
39, -188.29, -101.26, 712.88, 677.81, 0.00, 0.00, 0.00, 14:27:24.074
40, -194.51, -108.02, 704.20, 667.61, 0.00, 0.00, 0.00, 14:27:24.074
41, -182.19, -106.13, 714.01, 677.00, 0.00, 0.00, 0.00, 14:27:24.074
42, -183.77, -110.47, 702.73, 668.09, 0.00, 0.00, 0.00, 14:27:24.075
43, -189.67, -116.61, 700.61, 660.37, 0.00, 0.00, 0.00, 14:27:24.075
44, -184.79, -102.40, 704.68, 671.26, 0.00, 0.00, 0.00, 14:27:24.075
45, -198.26, -116.10, 671.89, 634.01, 0.00, 0.00, 0.00, 14:27:24.103
46, -198.92, -113.11, 679.39, 644.90, 0.00, 0.00, 0.00, 14:27:24.104
47, -197.93, -112.03, 681.16, 639.63, 0.00, 0.00, 0.00, 14:27:24.104
48, -186.41, -101.80, 707.48, 663.23, 0.00, 0.00, 0.00, 14:27:24.105
49, -199.01, -117.60, 688.34, 644.95, 0.00, 0.00, 0.00, 14:27:24.105
50, -188.06, -102.13, 704.28, 659.52, 0.00, 0.00, 0.00, 14:27:24.105
51, -186.54, -101.54, 694.83, 647.70, 0.00, 0.00, 0.00, 14:27:24.133
52, -198.33, -118.23, 688.15, 652.13, 0.00, 0.00, 0.00, 14:27:24.133
53, -186.48, -104.47, 702.27, 662.09, 0.00, 0.00, 0.00, 14:27:24.133
54, -192.91, -111.44, 686.72, 642.52, 0.00, 0.00, 0.00, 14:27:24.133
55, -181.69, -103.61, 700.78, 658.23, 0.00, 0.00, 0.00, 14:27:24.134
56, -187.38, -104.59, 700.80, 655.54, 0.00, 0.00, 0.00, 14:27:24.134
57, -193.24, -113.75, 688.45, 647.25, 0.00, 0.00, 0.00, 14:27:24.163
58, -189.32, -108.52, 697.75, 658.98, 0.00, 0.00, 0.00, 14:27:24.163
59, -179.69, -104.24, 710.35, 671.99, 0.00, 0.00, 0.00, 14:27:24.163
60, -183.70, -108.58, 698.26, 663.19, 0.00, 0.00, 0.00, 14:27:24.163
61, -183.70, -112.86, 690.99, 651.37, 0.00, 0.00, 0.00, 14:27:24.164
62, -175.84, -102.71, 698.38, 650.90, 0.00, 0.00, 0.00, 14:27:24.164
63, -180.32, -100.23, 691.49, 652.57, 0.00, 0.00, 0.00, 14:27:24.193
64, -172.93, -95.87, 705.02, 667.35, 0.00, 0.00, 0.00, 14:27:24.193
65, -180.18, -93.71, 698.13, 653.50, 0.00, 0.00, 0.00, 14:27:24.193
66, -184.93, -103.47, 698.91, 648.47, 0.00, 0.00, 0.00, 14:27:24.193
67, -186.91, -103.74, 690.29, 644.49, 0.00, 0.00, 0.00, 14:27:24.194
68, -185.71, -97.07, 692.84, 654.69, 0.00, 0.00, 0.00, 14:27:24.194
69, -187.87, -101.02, 688.62, 649.99, 0.00, 0.00, 0.00, 14:27:24.223
70, -178.44, -91.77, 705.64, 656.66, 0.00, 0.00, 0.00, 14:27:24.224
71, -188.38, -101.44, 707.07, 660.10, 0.00, 0.00, 0.00, 14:27:24.224
72, -184.19, -94.20, 707.85, 671.11, 0.00, 0.00, 0.00, 14:27:24.224
73, -189.61, -107.90, 694.15, 656.87, 0.00, 0.00, 0.00, 14:27:24.225
74, -180.03, -92.76, 700.46, 658.42, 0.00, 0.00, 0.00, 14:27:24.225
75, -189.22, -98.93, 694.35, 654.56, 0.00, 0.00, 0.00, 14:27:24.253
76, -171.51, -89.80, 700.19, 664.17, 0.00, 0.00, 0.00, 14:27:24.253
77, -184.04, -101.95, 686.09, 644.36, 0.00, 0.00, 0.00, 14:27:24.254
78, -180.67, -95.64, 693.21, 654.77, 0.00, 0.00, 0.00, 14:27:24.254
79, -163.82, -82.24, 707.12, 665.99, 0.00, 0.00, 0.00, 14:27:24.254
80, -190.51, -105.40, 701.20, 657.34, 0.00, 0.00, 0.00, 14:27:24.255
81, -178.93, -94.81, 697.25, 663.29, 0.00, 0.00, 0.00, 14:27:24.283
82, -188.63, -107.61, 688.51, 641.87, 0.00, 0.00, 0.00, 14:27:24.283
83, -192.79, -109.53, 687.38, 644.77, 0.00, 0.00, 0.00, 14:27:24.283
84, -173.46, -92.62, 700.33, 665.32, 0.00, 0.00, 0.00, 14:27:24.283
85, -175.52, -92.12, 708.26, 669.72, 0.00, 0.00, 0.00, 14:27:24.284
86, -187.31, -101.45, 708.64, 670.55, 0.00, 0.00, 0.00, 14:27:24.284
87, -185.79, -103.19, 699.37, 667.98, 0.00, 0.00, 0.00, 14:27:24.313
88, -194.38, -110.76, 700.06, 669.15, 0.00, 0.00, 0.00, 14:27:24.313
89, -184.38, -96.49, 708.73, 685.90, 0.00, 0.00, 0.00, 14:27:24.314
90, -186.48, -98.88, 695.06, 663.22, 0.00, 0.00, 0.00, 14:27:24.314
91, -183.19, -91.49, 715.88, 679.20, 0.00, 0.00, 0.00, 14:27:24.314
92, -174.75, -87.01, 720.57, 693.20, 0.00, 0.00, 0.00, 14:27:24.314
93, -199.83, -113.90, 684.10, 645.45, 0.00, 0.00, 0.00, 14:27:24.343
94, -192.68, -107.77, 691.64, 650.11, 0.00, 0.00, 0.00, 14:27:24.344
95, -183.37, -101.52, 700.26, 663.84, 0.00, 0.00, 0.00, 14:27:24.344
96, -175.54, -90.75, 709.74, 670.09, 0.00, 0.00, 0.00, 14:27:24.344
97, -194.00, -108.40, 684.58, 643.02, 0.00, 0.00, 0.00, 14:27:24.344
98, -189.30, -98.59, 705.73, 666.29, 0.00, 0.00, 0.00, 14:27:24.344
99, -188.38, -99.55, 705.52, 659.92, 0.00, 0.00, 0.00, 14:27:24.373
100, -184.94, -101.08, 696.54, 653.07, 0.00, 0.00, 0.00, 14:27:24.373
101, -181.29, -93.60, 703.93, 661.47, 0.00, 0.00, 0.00, 14:27:24.373
102, -180.24, -93.48, 709.67, 669.13, 0.00, 0.00, 0.00, 14:27:24.373
103, -203.22, -119.84, 690.52, 642.62, 0.00, 0.00, 0.00, 14:27:24.375
104, -191.35, -107.72, 699.86, 654.77, 0.00, 0.00, 0.00, 14:27:24.375
105, -183.03, -99.71, 708.83, 663.62, 0.00, 0.00, 0.00, 14:27:24.403
106, -171.81, -101.95, 717.09, 671.64, 0.00, 0.00, 0.00, 14:27:24.403
107, -195.84, -117.36, 700.42, 649.44, 0.00, 0.00, 0.00, 14:27:24.403
108, -182.53, -101.15, 698.30, 659.94, 0.00, 0.00, 0.00, 14:27:24.403
109, -178.76, -89.90, 701.56, 670.53, 0.00, 0.00, 0.00, 14:27:24.404
110, -195.78, -107.64, 685.91, 647.37, 0.00, 0.00, 0.00, 14:27:24.404
111, -177.11, -89.96, 706.22, 662.72, 0.00, 0.00, 0.00, 14:27:24.433
112, -186.90, -97.65, 696.92, 658.14, 0.00, 0.00, 0.00, 14:27:24.433
113, -200.60, -115.48, 691.29, 653.05, 0.00, 0.00, 0.00, 14:27:24.433
114, -173.97, -90.44, 713.31, 665.56, 0.00, 0.00, 0.00, 14:27:24.434
115, -182.56, -104.95, 696.68, 659.84, 0.00, 0.00, 0.00, 14:27:24.434
116, -192.02, -113.60, 688.24, 657.99, 0.00, 0.00, 0.00, 14:27:24.434
117, -182.32, -96.93, 690.48, 642.58, 0.00, 0.00, 0.00, 14:27:24.463
118, -186.93, -99.48, 709.12, 658.52, 0.00, 0.00, 0.00, 14:27:24.463
119, -184.06, -94.48, 687.28, 650.83, 0.00, 0.00, 0.00, 14:27:24.463
120, -185.95, -105.37, 691.76, 653.79, 0.00, 0.00, 0.00, 14:27:24.463
121, -171.26, -95.47, 706.39, 668.66, 0.00, 0.00, 0.00, 14:27:24.464
122, -194.74, -110.16, 675.67, 643.08, 0.00, 0.00, 0.00, 14:27:24.464
123, -196.15, -111.24, 679.85, 643.41, 0.00, 0.00, 0.00, 14:27:24.493
124, -185.53, -112.11, 696.58, 658.34, 0.00, 0.00, 0.00, 14:27:24.493
125, -192.62, -114.41, 688.35, 647.66, 0.00, 0.00, 0.00, 14:27:24.493
126, -194.09, -109.93, 696.84, 656.33, 0.00, 0.00, 0.00, 14:27:24.494
127, -177.45, -92.81, 722.21, 674.91, 0.00, 0.00, 0.00, 14:27:24.494
128, -187.36, -108.28, 714.31, 678.38, 0.00, 0.00, 0.00, 14:27:24.494
129, -196.69, -112.59, 698.28, 657.61, 0.00, 0.00, 0.00, 14:27:24.523
130, -184.13, -111.01, 680.33, 643.49, 0.00, 0.00, 0.00, 14:27:24.523
131, -192.89, -110.47, 688.79, 639.00, 0.00, 0.00, 0.00, 14:27:24.523
132, -176.80, -94.52, 699.26, 660.93, 0.00, 0.00, 0.00, 14:27:24.523
133, -190.23, -103.41, 708.89, 669.19, 0.00, 0.00, 0.00, 14:27:24.524
134, -191.16, -109.51, 700.13, 660.00, 0.00, 0.00, 0.00, 14:27:24.524
135, -188.59, -102.25, 692.50, 651.92, 0.00, 0.00, 0.00, 14:27:24.553
136, -196.73, -117.80, 694.77, 651.36, 0.00, 0.00, 0.00, 14:27:24.553
137, -194.10, -116.13, 697.76, 654.59, 0.00, 0.00, 0.00, 14:27:24.553
138, -184.76, -109.52, 693.00, 651.08, 0.00, 0.00, 0.00, 14:27:24.553
139, -191.97, -103.78, 699.49, 657.81, 0.00, 0.00, 0.00, 14:27:24.554
140, -191.83, -107.31, 707.21, 663.11, 0.00, 0.00, 0.00, 14:27:24.554
141, -192.99, -113.98, 676.48, 637.74, 0.00, 0.00, 0.00, 14:27:24.583
142, -178.10, -102.88, 695.51, 660.29, 0.00, 0.00, 0.00, 14:27:24.583
143, -175.73, -109.88, 716.99, 674.89, 0.00, 0.00, 0.00, 14:27:24.583
144, -166.40, -95.22, 708.67, 665.62, 0.00, 0.00, 0.00, 14:27:24.584
145, -189.59, -116.20, 697.66, 654.94, 0.00, 0.00, 0.00, 14:27:24.584
146, -194.35, -118.23, 687.04, 640.04, 0.00, 0.00, 0.00, 14:27:24.584
147, -180.44, -103.42, 700.74, 661.19, 0.00, 0.00, 0.00, 14:27:24.613
148, -170.38, -96.24, 718.90, 670.34, 0.00, 0.00, 0.00, 14:27:24.613
149, -177.56, -101.90, 711.66, 671.06, 0.00, 0.00, 0.00, 14:27:24.613
150, -190.82, -113.00, 692.24, 647.15, 0.00, 0.00, 0.00, 14:27:24.613
151, -163.15, -91.01, 716.80, 676.98, 0.00, 0.00, 0.00, 14:27:24.614
152, -180.02, -110.52, 707.56, 667.97, 0.00, 0.00, 0.00, 14:27:24.614
153, -188.61, -113.87, 685.78, 654.72, 0.00, 0.00, 0.00, 14:27:24.643
154, -173.32, -104.60, 708.13, 677.16, 0.00, 0.00, 0.00, 14:27:24.643
155, -173.59, -96.43, 718.66, 685.62, 0.00, 0.00, 0.00, 14:27:24.644
156, -195.10, -114.65, 701.18, 653.10, 0.00, 0.00, 0.00, 14:27:24.644
157, -191.84, -118.18, 680.78, 643.68, 0.00, 0.00, 0.00, 14:27:24.644
158, -178.89, -93.77, 717.37, 679.43, 0.00, 0.00, 0.00, 14:27:24.644
159, -185.14, -112.20, 677.16, 631.62, 0.00, 0.00, 0.00, 14:27:24.674
160, -186.58, -114.23, 676.32, 632.78, 0.00, 0.00, 0.00, 14:27:24.674
161, -165.16, -92.69, 709.32, 671.32, 0.00, 0.00, 0.00, 14:27:24.675
162, -180.42, -99.28, 711.74, 656.78, 0.00, 0.00, 0.00, 14:27:24.675
163, -185.29, -114.06, 724.60, 675.98, 0.00, 0.00, 0.00, 14:27:24.675
164, -192.38, -112.80, 690.13, 646.75, 0.00, 0.00, 0.00, 14:27:24.675
165, -173.99, -94.55, 715.21, 669.79, 0.00, 0.00, 0.00, 14:27:24.703
166, -187.51, -110.02, 699.44, 658.27, 0.00, 0.00, 0.00, 14:27:24.704
167, -160.64, -78.73, 720.98, 681.87, 0.00, 0.00, 0.00, 14:27:24.704
168, -160.26, -86.09, 756.43, 726.69, 0.00, 0.00, 0.00, 14:27:24.704
169, -199.57, -108.98, 693.48, 666.85, 0.00, 0.00, 0.00, 14:27:24.705
170, -204.60, -130.55, 683.70, 652.94, 0.00, 0.00, 0.00, 14:27:24.705
171, -179.41, -101.83, 710.92, 676.87, 0.00, 0.00, 0.00, 14:27:24.733
172, -157.48, -65.12, 744.16, 726.74, 0.00, 0.00, 0.00, 14:27:24.733
173, -131.06, -34.63, 773.48, 727.13, 0.00, 0.00, 0.00, 14:27:24.734
174, -223.93, -142.13, 686.26, 653.80, 0.00, 0.00, 0.00, 14:27:24.734
175, -199.28, -142.97, 645.72, 619.21, 0.00, 0.00, 0.00, 14:27:24.735
176, 40.76, 120.14, 910.45, 859.58, 0.00, 0.00, 0.00, 14:27:24.735
177, -71.11, 24.28, 779.28, 769.14, 0.00, 0.00, 0.00, 14:27:24.763
178, 84.62, 232.66, 968.01, 926.42, 0.00, 0.00, 0.00, 14:27:24.763
179, -498.06, -387.02, 503.07, 490.68, 0.00, 0.00, 0.00, 14:27:24.764
180, -61.87, 53.56, 714.08, 680.48, 0.00, 0.00, 0.00, 14:27:24.764
181, -389.60, -411.59, 554.34, 541.42, 0.00, 0.00, 0.00, 14:27:24.765
182, 364.27, 389.76, 1098.60, 972.58, 0.00, 0.00, 0.00, 14:27:24.765
183, -233.72, -114.34, 805.69, 739.03, 0.00, 0.00, 0.00, 14:27:24.793
184, -571.90, -492.16, 442.89, 386.91, 0.00, 0.00, 0.00, 14:27:24.793
185, -139.93, -78.62, 678.89, 574.15, 0.00, 0.00, 0.00, 14:27:24.793
186, 370.07, 487.84, 1303.10, 1216.24, 0.00, 0.00, 0.00, 14:27:24.794
187, -537.50, 453.46, 511.38, 404.38, 0.00, 0.00, 0.00, 14:27:24.795
188, -298.86, 743.49, 599.13, 407.58, 0.00, 0.00, 0.00, 14:27:24.795
189, -470.15, 611.52, 691.01, 513.73, 0.00, 0.00, 0.00, 14:27:24.823
190, -377.46, 705.73, 574.20, 473.22, 0.00, 0.00, 0.00, 14:27:24.823
191, -32.05, 996.88, 668.92, 575.99, 0.00, 0.00, 0.00, 14:27:24.823
192, -298.72, 697.92, 657.47, 498.44, 0.00, 0.00, 0.00, 14:27:24.823
193, -249.62, 812.36, 612.47, 527.91, 0.00, 0.00, 0.00, 14:27:24.824
194, -321.01, 807.69, 613.69, 484.89, 0.00, 0.00, 0.00, 14:27:24.825
195, -214.98, 891.98, 805.65, 682.71, 0.00, 0.00, 0.00, 14:27:24.853
196, -258.96, 694.48, 562.71, 447.76, 0.00, 0.00, 0.00, 14:27:24.853
197, -276.58, 772.24, 597.50, 486.80, 0.00, 0.00, 0.00, 14:27:24.853
198, -175.13, 895.41, 673.49, 608.51, 0.00, 0.00, 0.00, 14:27:24.854
199, -213.81, 885.54, 750.50, 642.52, 0.00, 0.00, 0.00, 14:27:24.854
200, -366.46, 687.41, 548.79, 498.85, 0.00, 0.00, 0.00, 14:27:24.854
201, -245.29, 820.70, 598.36, 527.42, 0.00, 0.00, 0.00, 14:27:24.883
202, -201.91, 798.41, 706.91, 602.55, 0.00, 0.00, 0.00, 14:27:24.883
203, -299.47, 769.27, 568.83, 479.52, 0.00, 0.00, 0.00, 14:27:24.884
204, -142.31, 936.52, 748.08, 671.09, 0.00, 0.00, 0.00, 14:27:24.884
205, -110.63, 921.35, 784.07, 723.90, 0.00, 0.00, 0.00, 14:27:24.884
206, -163.11, 940.76, 725.30, 648.05, 0.00, 0.00, 0.00, 14:27:24.884
207, -230.36, 836.35, 694.01, 631.24, 0.00, 0.00, 0.00, 14:27:24.912
208, -240.09, 801.22, 645.96, 546.89, 0.00, 0.00, 0.00, 14:27:24.913
209, -286.58, 781.35, 674.26, 588.72, 0.00, 0.00, 0.00, 14:27:24.913
210, -164.96, 883.23, 721.77, 652.36, 0.00, 0.00, 0.00, 14:27:24.913
211, -249.72, 805.89, 671.81, 596.74, 0.00, 0.00, 0.00, 14:27:24.914
212, -151.14, 905.43, 727.36, 658.40, 0.00, 0.00, 0.00, 14:27:24.914
213, -209.43, 861.59, 704.80, 648.82, 0.00, 0.00, 0.00, 14:27:24.943
214, -178.52, 899.23, 715.21, 648.85, 0.00, 0.00, 0.00, 14:27:24.943
215, -187.08, 886.22, 714.14, 644.42, 0.00, 0.00, 0.00, 14:27:24.943
216, -222.89, 825.24, 702.95, 633.44, 0.00, 0.00, 0.00, 14:27:24.944
217, -200.60, 861.56, 696.28, 629.43, 0.00, 0.00, 0.00, 14:27:24.944
218, -170.36, 889.56, 710.70, 648.46, 0.00, 0.00, 0.00, 14:27:24.944
219, -166.35, 889.23, 720.36, 668.95, 0.00, 0.00, 0.00, 14:27:24.973
220, -171.94, 885.46, 709.11, 658.18, 0.00, 0.00, 0.00, 14:27:24.973
221, -170.48, 888.54, 710.72, 652.83, 0.00, 0.00, 0.00, 14:27:24.973
222, -162.22, 901.92, 723.61, 670.06, 0.00, 0.00, 0.00, 14:27:24.973
223, -179.64, 879.18, 706.65, 657.43, 0.00, 0.00, 0.00, 14:27:24.974
224, -156.96, 900.93, 730.76, 682.68, 0.00, 0.00, 0.00, 14:27:24.974
225, -149.51, 917.53, 727.59, 687.08, 0.00, 0.00, 0.00, 14:27:25.003
226, -179.40, 884.29, 713.65, 666.14, 0.00, 0.00, 0.00, 14:27:25.003
227, -188.05, 871.36, 683.31, 648.42, 0.00, 0.00, 0.00, 14:27:25.004
228, -164.41, 896.32, 707.22, 667.99, 0.00, 0.00, 0.00, 14:27:25.004
229, -175.33, 882.40, 690.19, 653.63, 0.00, 0.00, 0.00, 14:27:25.004
230, -177.46, 889.04, 690.25, 653.15, 0.00, 0.00, 0.00, 14:27:25.004
231, -162.08, 898.88, 715.86, 686.75, 0.00, 0.00, 0.00, 14:27:25.033
232, -175.87, 889.01, 706.43, 672.21, 0.00, 0.00, 0.00, 14:27:25.033
233, -171.51, 895.59, 704.94, 666.10, 0.00, 0.00, 0.00, 14:27:25.033
234, -156.10, 905.40, 713.91, 668.40, 0.00, 0.00, 0.00, 14:27:25.033
235, -156.31, 903.43, 731.86, 691.47, 0.00, 0.00, 0.00, 14:27:25.034
236, -177.49, 872.76, 673.31, 635.82, 0.00, 0.00, 0.00, 14:27:25.034
237, -169.39, 892.87, 688.51, 652.42, 0.00, 0.00, 0.00, 14:27:25.064
238, -156.14, 892.66, 701.82, 668.94, 0.00, 0.00, 0.00, 14:27:25.064
239, -154.70, 901.69, 704.69, 671.33, 0.00, 0.00, 0.00, 14:27:25.064
240, -169.66, 878.68, 676.24, 652.03, 0.00, 0.00, 0.00, 14:27:25.065
241, -162.66, 887.03, 690.18, 664.86, 0.00, 0.00, 0.00, 14:27:25.065
242, -157.64, 899.35, 705.70, 675.90, 0.00, 0.00, 0.00, 14:27:25.065
243, -160.27, 898.45, 702.14, 676.08, 0.00, 0.00, 0.00, 14:27:25.094
244, -166.55, 886.04, 698.13, 672.85, 0.00, 0.00, 0.00, 14:27:25.095
245, -160.60, 893.37, 695.62, 675.09, 0.00, 0.00, 0.00, 14:27:25.095
246, -165.54, 892.47, 697.71, 680.56, 0.00, 0.00, 0.00, 14:27:25.095
247, -177.51, 885.71, 685.92, 667.01, 0.00, 0.00, 0.00, 14:27:25.095
248, -164.55, 892.74, 698.61, 680.41, 0.00, 0.00, 0.00, 14:27:25.096
249, -160.51, 897.94, 701.18, 678.41, 0.00, 0.00, 0.00, 14:27:25.123
250, -173.23, 885.79, 695.34, 681.28, 0.00, 0.00, 0.00, 14:27:25.123
251, -166.62, 889.35, 690.14, 676.88, 0.00, 0.00, 0.00, 14:27:25.128
252, -164.74, 895.54, 700.25, 689.83, 0.00, 0.00, 0.00, 14:27:25.128
253, -169.79, 888.18, 686.22, 674.31, 0.00, 0.00, 0.00, 14:27:25.129
254, -171.59, 889.59, 691.27, 679.81, 0.00, 0.00, 0.00, 14:27:25.129
0, -173.14, -94.25, 691.04, 686.71, 0.00, 0.00, 0.00, 14:27:25.130
1, -163.12, -91.02, 703.25, 694.72, 0.00, 0.00, 0.00, 14:27:25.153
2, -172.16, -106.90, 689.28, 678.09, 0.00, 0.00, 0.00, 14:27:25.153
3, -176.29, -100.71, 685.78, 670.97, 0.00, 0.00, 0.00, 14:27:25.153
4, -171.11, -94.52, 699.36, 677.70, 0.00, 0.00, 0.00, 14:27:25.153
5, -169.05, -92.76, 695.35, 684.04, 0.00, 0.00, 0.00, 14:27:25.154
6, -161.87, -85.31, 689.69, 672.55, 0.00, 0.00, 0.00, 14:27:25.154
7, -160.47, -82.14, 695.11, 670.33, 0.00, 0.00, 0.00, 14:27:25.183
8, -169.65, -94.97, 680.39, 661.06, 0.00, 0.00, 0.00, 14:27:25.183
9, -170.82, -98.33, 686.25, 672.76, 0.00, 0.00, 0.00, 14:27:25.183
10, -167.53, -93.03, 710.24, 681.67, 0.00, 0.00, 0.00, 14:27:25.184
11, -168.16, -98.45, 701.90, 678.32, 0.00, 0.00, 0.00, 14:27:25.184
12, -169.71, -100.39, 691.45, 670.39, 0.00, 0.00, 0.00, 14:27:25.184
13, -168.37, -100.24, 695.55, 678.35, 0.00, 0.00, 0.00, 14:27:25.213
14, -171.93, -100.16, 692.26, 676.16, 0.00, 0.00, 0.00, 14:27:25.213
15, -174.29, -99.50, 688.97, 672.54, 0.00, 0.00, 0.00, 14:27:25.214
16, -165.50, -95.04, 700.46, 674.28, 0.00, 0.00, 0.00, 14:27:25.214
17, -173.13, -99.83, 703.21, 673.41, 0.00, 0.00, 0.00, 14:27:25.215
18, -180.91, -103.18, 692.76, 670.81, 0.00, 0.00, 0.00, 14:27:25.216
19, -174.51, -99.26, 700.27, 673.11, 0.00, 0.00, 0.00, 14:27:25.244
20, -178.57, -103.48, 695.22, 676.25, 0.00, 0.00, 0.00, 14:27:25.245
21, -181.00, -94.90, 695.27, 682.41, 0.00, 0.00, 0.00, 14:27:25.246
22, -183.39, -97.35, 693.75, 676.42, 0.00, 0.00, 0.00, 14:27:25.246
23, -180.73, -101.15, 689.05, 664.70, 0.00, 0.00, 0.00, 14:27:25.246
24, -177.26, -94.33, 692.94, 664.99, 0.00, 0.00, 0.00, 14:27:25.246
25, -178.25, -96.64, 695.81, 671.33, 0.00, 0.00, 0.00, 14:27:25.303
26, -183.25, -98.55, 688.27, 663.88, 0.00, 0.00, 0.00, 14:27:25.303
27, -182.02, -101.75, 692.04, 673.34, 0.00, 0.00, 0.00, 14:27:25.303
28, -181.66, -101.51, 691.74, 671.81, 0.00, 0.00, 0.00, 14:27:25.303
29, -177.69, -97.33, 698.17, 668.79, 0.00, 0.00, 0.00, 14:27:25.304
30, -170.78, -93.23, 701.49, 670.70, 0.00, 0.00, 0.00, 14:27:25.304
31, -179.51, -107.95, 686.05, 656.31, 0.00, 0.00, 0.00, 14:27:25.304
32, -178.56, -98.50, 693.65, 674.62, 0.00, 0.00, 0.00, 14:27:25.305
33, -173.29, -91.14, 691.58, 662.77, 0.00, 0.00, 0.00, 14:27:25.334
34, -176.58, -102.30, 698.25, 673.30, 0.00, 0.00, 0.00, 14:27:25.334
35, -182.51, -105.50, 685.96, 663.04, 0.00, 0.00, 0.00, 14:27:25.334
36, -172.79, -97.60, 693.22, 670.85, 0.00, 0.00, 0.00, 14:27:25.334
37, -186.01, -102.18, 701.63, 671.32, 0.00, 0.00, 0.00, 14:27:25.335
38, -178.56, -101.85, 707.19, 681.10, 0.00, 0.00, 0.00, 14:27:25.335
39, -187.60, -114.03, 698.76, 678.86, 0.00, 0.00, 0.00, 14:27:25.335
40, -179.46, -105.54, 698.76, 668.30, 0.00, 0.00, 0.00, 14:27:25.335
41, -182.19, -106.40, 698.52, 669.26, 0.00, 0.00, 0.00, 14:27:25.363
42, -187.78, -110.23, 695.64, 671.71, 0.00, 0.00, 0.00, 14:27:25.363
43, -183.26, -101.74, 691.34, 661.95, 0.00, 0.00, 0.00, 14:27:25.363
44, -176.89, -96.03, 688.31, 654.44, 0.00, 0.00, 0.00, 14:27:25.364
45, -185.15, -104.04, 686.52, 657.67, 0.00, 0.00, 0.00, 14:27:25.364
46, -174.95, -89.27, 696.99, 665.39, 0.00, 0.00, 0.00, 14:27:25.364
47, -181.05, -96.42, 695.37, 665.21, 0.00, 0.00, 0.00, 14:27:25.393
48, -190.96, -100.69, 690.74, 663.24, 0.00, 0.00, 0.00, 14:27:25.393
49, -179.98, -98.09, 700.61, 672.87, 0.00, 0.00, 0.00, 14:27:25.393
50, -177.80, -94.27, 700.04, 663.17, 0.00, 0.00, 0.00, 14:27:25.393
51, -182.67, -106.59, 705.72, 668.17, 0.00, 0.00, 0.00, 14:27:25.394
52, -194.79, -110.84, 685.20, 651.71, 0.00, 0.00, 0.00, 14:27:25.394
53, -176.00, -101.45, 700.75, 668.23, 0.00, 0.00, 0.00, 14:27:25.394
54, -181.48, -103.60, 699.47, 670.71, 0.00, 0.00, 0.00, 14:27:25.394
55, -187.25, -106.80, 699.32, 659.79, 0.00, 0.00, 0.00, 14:27:25.422
56, -175.77, -104.83, 693.06, 655.06, 0.00, 0.00, 0.00, 14:27:25.423
57, -181.60, -103.67, 696.71, 663.44, 0.00, 0.00, 0.00, 14:27:25.423
58, -190.25, -109.14, 695.34, 658.41, 0.00, 0.00, 0.00, 14:27:25.423
59, -190.52, -107.62, 688.99, 654.19, 0.00, 0.00, 0.00, 14:27:25.424
60, -184.62, -101.49, 697.97, 657.21, 0.00, 0.00, 0.00, 14:27:25.424
61, -188.51, -112.71, 703.92, 664.69, 0.00, 0.00, 0.00, 14:27:25.453
62, -200.54, -123.48, 692.49, 650.87, 0.00, 0.00, 0.00, 14:27:25.453
63, -187.50, -109.98, 689.02, 657.15, 0.00, 0.00, 0.00, 14:27:25.453
64, -183.16, -108.88, 690.87, 663.40, 0.00, 0.00, 0.00, 14:27:25.454
65, -186.63, -102.03, 700.98, 670.25, 0.00, 0.00, 0.00, 14:27:25.454
66, -181.94, -105.11, 697.99, 661.30, 0.00, 0.00, 0.00, 14:27:25.455
67, -198.90, -114.42, 690.99, 648.74, 0.00, 0.00, 0.00, 14:27:25.485
68, -188.25, -104.78, 705.56, 669.41, 0.00, 0.00, 0.00, 14:27:25.485
69, -182.99, -104.70, 716.39, 673.86, 0.00, 0.00, 0.00, 14:27:25.485
70, -183.20, -105.09, 719.20, 691.01, 0.00, 0.00, 0.00, 14:27:25.486
71, -199.68, -119.33, 687.72, 664.86, 0.00, 0.00, 0.00, 14:27:25.487
72, -193.25, -109.84, 708.54, 673.59, 0.00, 0.00, 0.00, 14:27:25.487
73, -181.23, -102.61, 707.68, 668.95, 0.00, 0.00, 0.00, 14:27:25.514
74, -179.25, -101.89, 719.67, 694.62, 0.00, 0.00, 0.00, 14:27:25.514
75, -192.87, -101.32, 701.81, 683.19, 0.00, 0.00, 0.00, 14:27:25.514
76, -200.80, -120.44, 682.75, 651.03, 0.00, 0.00, 0.00, 14:27:25.514
77, -195.44, -113.86, 711.65, 672.51, 0.00, 0.00, 0.00, 14:27:25.515
78, -197.89, -115.72, 707.67, 673.41, 0.00, 0.00, 0.00, 14:27:25.515
79, -184.31, -95.58, 716.62, 675.86, 0.00, 0.00, 0.00, 14:27:25.543
80, -186.50, -104.29, 707.52, 676.72, 0.00, 0.00, 0.00, 14:27:25.543
81, -187.01, -102.62, 700.46, 675.32, 0.00, 0.00, 0.00, 14:27:25.544
82, -193.86, -110.04, 691.72, 662.33, 0.00, 0.00, 0.00, 14:27:25.544
83, -188.06, -105.22, 697.77, 663.56, 0.00, 0.00, 0.00, 14:27:25.544
84, -179.38, -102.38, 706.83, 673.16, 0.00, 0.00, 0.00, 14:27:25.544
85, -192.31, -108.66, 700.55, 665.05, 0.00, 0.00, 0.00, 14:27:25.573
86, -179.44, -98.31, 710.96, 673.07, 0.00, 0.00, 0.00, 14:27:25.573
87, -190.66, -114.08, 694.50, 658.35, 0.00, 0.00, 0.00, 14:27:25.573
88, -185.07, -104.72, 708.53, 671.66, 0.00, 0.00, 0.00, 14:27:25.573
89, -190.93, -108.79, 694.80, 656.10, 0.00, 0.00, 0.00, 14:27:25.574
90, -194.58, -111.66, 696.41, 651.94, 0.00, 0.00, 0.00, 14:27:25.574
91, -198.08, -114.08, 687.53, 647.52, 0.00, 0.00, 0.00, 14:27:25.603
92, -182.47, -100.50, 709.90, 665.20, 0.00, 0.00, 0.00, 14:27:25.603
93, -186.00, -107.86, 700.96, 652.72, 0.00, 0.00, 0.00, 14:27:25.603
94, -164.34, -93.62, 715.41, 670.97, 0.00, 0.00, 0.00, 14:27:25.603
95, -197.79, -116.15, 699.28, 660.65, 0.00, 0.00, 0.00, 14:27:25.604
96, -187.80, -108.13, 697.78, 653.23, 0.00, 0.00, 0.00, 14:27:25.604
97, -187.98, -109.48, 700.77, 663.64, 0.00, 0.00, 0.00, 14:27:25.633
98, -166.68, -94.10, 723.63, 676.80, 0.00, 0.00, 0.00, 14:27:25.633
99, -193.24, -114.75, 701.73, 645.59, 0.00, 0.00, 0.00, 14:27:25.633
100, -182.68, -100.66, 686.44, 651.19, 0.00, 0.00, 0.00, 14:27:25.634
101, -187.32, -100.54, 702.75, 670.96, 0.00, 0.00, 0.00, 14:27:25.634
102, -186.55, -104.10, 688.98, 645.80, 0.00, 0.00, 0.00, 14:27:25.634
103, -162.43, -91.75, 712.17, 673.86, 0.00, 0.00, 0.00, 14:27:25.662
104, -173.62, -94.53, 717.49, 671.23, 0.00, 0.00, 0.00, 14:27:25.663
105, -187.71, -105.03, 687.75, 650.40, 0.00, 0.00, 0.00, 14:27:25.663
106, -184.46, -105.54, 690.47, 653.04, 0.00, 0.00, 0.00, 14:27:25.663
107, -179.22, -98.69, 704.59, 671.91, 0.00, 0.00, 0.00, 14:27:25.664
108, -175.36, -95.70, 725.77, 691.27, 0.00, 0.00, 0.00, 14:27:25.664
109, -195.89, -109.55, 696.87, 649.41, 0.00, 0.00, 0.00, 14:27:25.692
110, -178.87, -98.90, 706.18, 665.39, 0.00, 0.00, 0.00, 14:27:25.693
111, -191.13, -117.60, 700.88, 652.49, 0.00, 0.00, 0.00, 14:27:25.693
112, -184.43, -102.10, 708.66, 660.12, 0.00, 0.00, 0.00, 14:27:25.693
113, -182.82, -107.16, 685.44, 633.31, 0.00, 0.00, 0.00, 14:27:25.694
114, -186.08, -102.08, 698.81, 656.80, 0.00, 0.00, 0.00, 14:27:25.694
115, -187.25, -104.08, 686.01, 647.49, 0.00, 0.00, 0.00, 14:27:25.723
116, -185.78, -102.32, 705.15, 660.32, 0.00, 0.00, 0.00, 14:27:25.723
117, -160.20, -77.04, 732.59, 679.35, 0.00, 0.00, 0.00, 14:27:25.723
118, -210.83, -130.26, 671.40, 629.98, 0.00, 0.00, 0.00, 14:27:25.723
119, -185.07, -103.49, 693.45, 657.84, 0.00, 0.00, 0.00, 14:27:25.724
120, -182.17, -102.20, 705.03, 653.77, 0.00, 0.00, 0.00, 14:27:25.724
121, -196.98, -115.46, 684.56, 641.83, 0.00, 0.00, 0.00, 14:27:25.752
122, -181.06, -104.51, 697.55, 656.88, 0.00, 0.00, 0.00, 14:27:25.753
123, -181.27, -106.57, 702.84, 663.01, 0.00, 0.00, 0.00, 14:27:25.753
124, -186.96, -106.81, 693.30, 640.81, 0.00, 0.00, 0.00, 14:27:25.753
125, -186.06, -110.01, 692.76, 648.95, 0.00, 0.00, 0.00, 14:27:25.754
126, -177.54, -102.96, 708.43, 664.71, 0.00, 0.00, 0.00, 14:27:25.754
127, -191.36, -117.83, 703.97, 668.72, 0.00, 0.00, 0.00, 14:27:25.782
128, -181.97, -96.29, 697.42, 663.30, 0.00, 0.00, 0.00, 14:27:25.783
129, -184.45, -121.69, 693.50, 647.03, 0.00, 0.00, 0.00, 14:27:25.783
130, -178.29, -100.33, 691.11, 647.98, 0.00, 0.00, 0.00, 14:27:25.783
131, -174.64, -89.68, 712.11, 665.03, 0.00, 0.00, 0.00, 14:27:25.784
132, -158.34, -77.23, 722.34, 688.97, 0.00, 0.00, 0.00, 14:27:25.784
133, -210.75, -127.41, 672.65, 619.38, 0.00, 0.00, 0.00, 14:27:25.813
134, -184.52, -93.93, 716.18, 665.42, 0.00, 0.00, 0.00, 14:27:25.814
135, -190.68, -104.25, 676.62, 645.25, 0.00, 0.00, 0.00, 14:27:25.814
136, -166.24, -78.64, 729.19, 687.23, 0.00, 0.00, 0.00, 14:27:25.814
137, -202.32, -132.74, 678.12, 626.88, 0.00, 0.00, 0.00, 14:27:25.814
138, -130.67, -50.94, 778.40, 730.61, 0.00, 0.00, 0.00, 14:27:25.814
139, -186.29, -100.55, 743.67, 691.66, 0.00, 0.00, 0.00, 14:27:25.843
140, -159.75, -67.55, 759.97, 697.07, 0.00, 0.00, 0.00, 14:27:25.843
141, -178.51, -100.13, 730.86, 694.47, 0.00, 0.00, 0.00, 14:27:25.843
142, -157.09, -87.29, 674.55, 624.54, 0.00, 0.00, 0.00, 14:27:25.843
143, -189.10, -90.47, 771.49, 710.71, 0.00, 0.00, 0.00, 14:27:25.844
144, 260.07, 326.55, 1054.28, 1019.53, 0.00, 0.00, 0.00, 14:27:25.844
145, -252.05, -121.64, 659.71, 622.78, 0.00, 0.00, 0.00, 14:27:25.872
146, -184.11, -81.28, 639.54, 567.60, 0.00, 0.00, 0.00, 14:27:25.873
147, -28.74, 121.57, 914.83, 881.37, 0.00, 0.00, 0.00, 14:27:25.873
148, 90.37, 40.96, 890.35, 800.79, 0.00, 0.00, 0.00, 14:27:25.874
149, -625.66, -494.17, 467.12, 441.79, 0.00, 0.00, 0.00, 14:27:25.874
150, -46.13, 14.27, 792.85, 694.49, 0.00, 0.00, 0.00, 14:27:25.875
151, -255.26, -140.35, 721.82, 672.89, 0.00, 0.00, 0.00, 14:27:25.902
152, -62.17, -17.32, 875.99, 864.22, 0.00, 0.00, 0.00, 14:27:25.903
153, -328.21, -264.28, 669.28, 577.14, 0.00, 0.00, 0.00, 14:27:25.903
154, -331.47, -191.19, 802.83, 731.14, 0.00, 0.00, 0.00, 14:27:25.903
155, 88.59, 53.28, 776.36, 686.71, 0.00, 0.00, 0.00, 14:27:25.904
156, -387.78, -150.80, 581.97, 583.30, 0.00, 0.00, 0.00, 14:27:25.904
157, -456.11, -502.08, 480.84, 426.11, 0.00, 0.00, 0.00, 14:27:25.933
158, -156.42, -45.75, 722.89, 624.08, 0.00, 0.00, 0.00, 14:27:25.933
159, -146.33, -43.36, 691.74, 678.74, 0.00, 0.00, 0.00, 14:27:25.933
160, -318.04, -328.94, 636.12, 508.83, 0.00, 0.00, 0.00, 14:27:25.934
161, -585.49, -440.78, 424.39, 407.11, 0.00, 0.00, 0.00, 14:27:25.934
162, 117.58, 247.27, 897.79, 879.74, 0.00, 0.00, 0.00, 14:27:25.934
163, -400.68, -423.52, 504.90, 415.72, 0.00, 0.00, 0.00, 14:27:25.963
164, -259.34, -41.51, 723.99, 665.84, 0.00, 0.00, 0.00, 14:27:25.963
165, -295.93, -273.59, 499.30, 521.69, 0.00, 0.00, 0.00, 14:27:25.963
166, -102.03, -57.46, 809.47, 716.26, 0.00, 0.00, 0.00, 14:27:25.964
167, -346.11, -210.55, 662.57, 547.93, 0.00, 0.00, 0.00, 14:27:25.964
168, -235.50, -149.19, 594.44, 603.85, 0.00, 0.00, 0.00, 14:27:25.964
169, -365.83, -352.58, 575.26, 563.61, 0.00, 0.00, 0.00, 14:27:25.992
170, -144.10, 28.83, 680.49, 586.37, 0.00, 0.00, 0.00, 14:27:25.993
171, -296.66, -196.65, 691.64, 644.35, 0.00, 0.00, 0.00, 14:27:25.993
172, -410.74, -377.81, 515.69, 448.14, 0.00, 0.00, 0.00, 14:27:25.993
173, -172.94, -76.52, 648.98, 620.81, 0.00, 0.00, 0.00, 14:27:25.994
174, -160.53, -85.92, 722.46, 688.24, 0.00, 0.00, 0.00, 14:27:25.994
175, -40.97, 79.47, 866.49, 830.45, 0.00, 0.00, 0.00, 14:27:26.022
176, -445.33, -386.46, 466.17, 418.43, 0.00, 0.00, 0.00, 14:27:26.023
177, -159.96, -63.33, 706.24, 628.76, 0.00, 0.00, 0.00, 14:27:26.023
178, -175.49, -84.24, 757.55, 707.33, 0.00, 0.00, 0.00, 14:27:26.023
179, -265.73, -168.08, 624.80, 603.30, 0.00, 0.00, 0.00, 14:27:26.024
180, -286.91, -220.02, 635.89, 569.97, 0.00, 0.00, 0.00, 14:27:26.024
181, -115.06, -6.76, 802.60, 765.67, 0.00, 0.00, 0.00, 14:27:26.053
182, -281.08, -227.29, 610.88, 562.42, 0.00, 0.00, 0.00, 14:27:26.053
183, -233.27, -134.54, 663.48, 609.96, 0.00, 0.00, 0.00, 14:27:26.053
184, -199.07, -108.72, 696.56, 652.00, 0.00, 0.00, 0.00, 14:27:26.053
185, -116.74, -26.72, 763.37, 724.19, 0.00, 0.00, 0.00, 14:27:26.054
186, -239.20, -166.89, 691.21, 634.37, 0.00, 0.00, 0.00, 14:27:26.054
187, -194.32, -103.10, 715.62, 657.50, 0.00, 0.00, 0.00, 14:27:26.083
188, -192.56, -108.52, 719.36, 665.52, 0.00, 0.00, 0.00, 14:27:26.083
189, -196.30, -133.80, 691.89, 637.93, 0.00, 0.00, 0.00, 14:27:26.083
190, -164.50, -91.44, 723.24, 672.31, 0.00, 0.00, 0.00, 14:27:26.083
191, -162.34, -83.33, 727.16, 683.64, 0.00, 0.00, 0.00, 14:27:26.084
192, -213.03, -124.23, 690.72, 640.74, 0.00, 0.00, 0.00, 14:27:26.084
193, -185.89, -101.67, 702.45, 652.44, 0.00, 0.00, 0.00, 14:27:26.113
194, -184.76, -100.66, 701.10, 652.73, 0.00, 0.00, 0.00, 14:27:26.113
195, -168.27, -88.69, 713.69, 662.93, 0.00, 0.00, 0.00, 14:27:26.113
196, -162.35, -87.59, 714.05, 668.26, 0.00, 0.00, 0.00, 14:27:26.114
197, -151.94, -73.59, 732.21, 685.40, 0.00, 0.00, 0.00, 14:27:26.114
198, -184.94, -100.48, 697.95, 662.30, 0.00, 0.00, 0.00, 14:27:26.114
199, -172.08, -89.65, 700.08, 660.69, 0.00, 0.00, 0.00, 14:27:26.143
200, -168.31, -92.65, 705.85, 661.76, 0.00, 0.00, 0.00, 14:27:26.143
201, -149.76, -69.88, 728.02, 683.75, 0.00, 0.00, 0.00, 14:27:26.143
202, -182.61, -102.82, 687.86, 644.32, 0.00, 0.00, 0.00, 14:27:26.144
203, -161.31, -81.07, 706.23, 662.21, 0.00, 0.00, 0.00, 14:27:26.144
204, -163.26, -87.68, 706.17, 663.31, 0.00, 0.00, 0.00, 14:27:26.144
205, -162.72, -81.52, 706.92, 666.60, 0.00, 0.00, 0.00, 14:27:26.173
206, -167.39, -88.40, 691.93, 647.54, 0.00, 0.00, 0.00, 14:27:26.173
207, -160.15, -81.52, 696.63, 668.04, 0.00, 0.00, 0.00, 14:27:26.173
208, -143.46, -74.08, 711.79, 675.30, 0.00, 0.00, 0.00, 14:27:26.174
209, -174.12, -106.09, 681.81, 638.62, 0.00, 0.00, 0.00, 14:27:26.174
210, -168.68, -87.72, 684.47, 653.46, 0.00, 0.00, 0.00, 14:27:26.174
211, -160.19, -83.15, 695.09, 657.98, 0.00, 0.00, 0.00, 14:27:26.203
212, -160.57, -86.32, 695.93, 663.36, 0.00, 0.00, 0.00, 14:27:26.203
213, -159.53, -89.52, 699.04, 670.75, 0.00, 0.00, 0.00, 14:27:26.204
214, -166.08, -89.28, 691.20, 654.77, 0.00, 0.00, 0.00, 14:27:26.204
215, -177.06, -100.95, 685.49, 645.98, 0.00, 0.00, 0.00, 14:27:26.204
216, -168.06, -91.89, 691.71, 659.44, 0.00, 0.00, 0.00, 14:27:26.204
217, -167.76, -90.96, 693.98, 660.81, 0.00, 0.00, 0.00, 14:27:26.233
218, -166.12, -88.06, 700.95, 667.81, 0.00, 0.00, 0.00, 14:27:26.233
219, -165.73, -81.45, 697.39, 670.41, 0.00, 0.00, 0.00, 14:27:26.233
220, -170.88, -88.57, 703.25, 675.89, 0.00, 0.00, 0.00, 14:27:26.233
221, -171.00, -94.08, 702.44, 678.01, 0.00, 0.00, 0.00, 14:27:26.234
222, -171.41, -93.09, 698.79, 676.75, 0.00, 0.00, 0.00, 14:27:26.234
223, -168.27, -90.70, 703.40, 682.02, 0.00, 0.00, 0.00, 14:27:26.263
224, -153.56, -80.47, 720.66, 699.85, 0.00, 0.00, 0.00, 14:27:26.263
225, -163.37, -92.32, 711.80, 697.15, 0.00, 0.00, 0.00, 14:27:26.263
226, -168.04, -92.14, 708.21, 695.72, 0.00, 0.00, 0.00, 14:27:26.264
227, -168.37, -90.40, 703.16, 682.10, 0.00, 0.00, 0.00, 14:27:26.264
228, -173.12, -96.54, 700.58, 677.94, 0.00, 0.00, 0.00, 14:27:26.264
229, -162.21, -90.53, 711.05, 683.42, 0.00, 0.00, 0.00, 14:27:26.293
230, -171.21, -95.16, 700.28, 671.24, 0.00, 0.00, 0.00, 14:27:26.293
231, -172.62, -90.68, 715.66, 676.74, 0.00, 0.00, 0.00, 14:27:26.294
232, -173.10, -88.26, 706.83, 670.76, 0.00, 0.00, 0.00, 14:27:26.294
233, -171.69, -86.97, 703.63, 672.02, 0.00, 0.00, 0.00, 14:27:26.294
234, -175.01, -92.42, 701.24, 675.93, 0.00, 0.00, 0.00, 14:27:26.294
235, -180.58, -102.65, 702.52, 670.46, 0.00, 0.00, 0.00, 14:27:26.323
236, -170.14, -96.64, 711.65, 675.51, 0.00, 0.00, 0.00, 14:27:26.324
237, -168.25, -91.67, 716.37, 685.65, 0.00, 0.00, 0.00, 14:27:26.324
238, -173.13, -103.73, 706.05, 675.12, 0.00, 0.00, 0.00, 14:27:26.324
239, -173.37, -91.91, 704.31, 669.14, 0.00, 0.00, 0.00, 14:27:26.324
240, -175.05, -95.44, 702.07, 658.43, 0.00, 0.00, 0.00, 14:27:26.325
241, -176.45, -87.34, 711.91, 679.07, 0.00, 0.00, 0.00, 14:27:26.356
242, -187.40, -106.34, 693.84, 657.08, 0.00, 0.00, 0.00, 14:27:26.356
243, -172.00, -97.30, 705.27, 659.53, 0.00, 0.00, 0.00, 14:27:26.357
244, -183.69, -96.86, 702.79, 656.96, 0.00, 0.00, 0.00, 14:27:26.357
245, -174.30, -91.08, 706.91, 667.61, 0.00, 0.00, 0.00, 14:27:26.357
246, -183.97, -101.35, 699.91, 663.84, 0.00, 0.00, 0.00, 14:27:26.357
247, -186.60, -101.59, 696.41, 662.01, 0.00, 0.00, 0.00, 14:27:26.383
248, -180.89, -93.39, 700.54, 672.87, 0.00, 0.00, 0.00, 14:27:26.383
249, -180.02, -96.23, 702.03, 675.02, 0.00, 0.00, 0.00, 14:27:26.383
250, -176.97, -93.66, 704.63, 677.41, 0.00, 0.00, 0.00, 14:27:26.384
251, -186.60, -104.13, 695.87, 666.37, 0.00, 0.00, 0.00, 14:27:26.384
252, -180.83, -96.59, 697.84, 661.41, 0.00, 0.00, 0.00, 14:27:26.384
253, -181.07, -93.96, 707.02, 673.07, 0.00, 0.00, 0.00, 14:27:26.413
254, -185.32, -99.56, 704.48, 663.71, 0.00, 0.00, 0.00, 14:27:26.413
0, -187.74, -104.36, 701.93, 661.90, 0.00, 0.00, 0.00, 14:27:26.414
1, -183.38, -102.77, 691.76, 651.73, 0.00, 0.00, 0.00, 14:27:26.414
2, -171.47, -88.71, 701.66, 664.23, 0.00, 0.00, 0.00, 14:27:26.415
3, -182.09, -102.48, 686.67, 655.56, 0.00, 0.00, 0.00, 14:27:26.443
4, -187.45, -107.32, 683.77, 649.66, 0.00, 0.00, 0.00, 14:27:26.443
5, -183.68, -103.50, 688.59, 658.97, 0.00, 0.00, 0.00, 14:27:26.444
6, -188.23, -106.73, 696.63, 670.48, 0.00, 0.00, 0.00, 14:27:26.444
7, -179.43, -95.75, 704.92, 675.03, 0.00, 0.00, 0.00, 14:27:26.444
8, -189.01, -109.09, 691.93, 654.48, 0.00, 0.00, 0.00, 14:27:26.444
9, -189.43, -104.19, 683.02, 641.10, 0.00, 0.00, 0.00, 14:27:26.473
10, -194.66, -112.42, 685.77, 640.77, 0.00, 0.00, 0.00, 14:27:26.473
11, -180.96, -97.85, 699.83, 662.70, 0.00, 0.00, 0.00, 14:27:26.473
12, -189.31, -106.67, 701.62, 664.14, 0.00, 0.00, 0.00, 14:27:26.473
13, -190.68, -107.93, 689.65, 653.90, 0.00, 0.00, 0.00, 14:27:26.474
14, -179.89, -100.03, 695.04, 658.87, 0.00, 0.00, 0.00, 14:27:26.474
15, -180.39, -99.95, 703.59, 664.61, 0.00, 0.00, 0.00, 14:27:26.503
16, -187.99, -107.72, 700.72, 658.99, 0.00, 0.00, 0.00, 14:27:26.503
17, -183.03, -97.37, 710.80, 668.89, 0.00, 0.00, 0.00, 14:27:26.503
18, -197.87, -108.77, 682.56, 648.93, 0.00, 0.00, 0.00, 14:27:26.503
19, -193.86, -109.43, 697.01, 657.64, 0.00, 0.00, 0.00, 14:27:26.504
20, -189.76, -112.09, 693.45, 642.80, 0.00, 0.00, 0.00, 14:27:26.504
21, -176.27, -88.55, 708.73, 657.90, 0.00, 0.00, 0.00, 14:27:26.534
22, -185.04, -98.66, 690.51, 651.53, 0.00, 0.00, 0.00, 14:27:26.534
23, -199.67, -118.44, 684.50, 645.73, 0.00, 0.00, 0.00, 14:27:26.534
24, -194.64, -108.78, 684.44, 647.34, 0.00, 0.00, 0.00, 14:27:26.535
25, -174.93, -86.49, 699.73, 664.48, 0.00, 0.00, 0.00, 14:27:26.535
26, -195.54, -117.69, 678.30, 643.36, 0.00, 0.00, 0.00, 14:27:26.535
27, -194.77, -110.43, 685.03, 647.78, 0.00, 0.00, 0.00, 14:27:26.563
28, -165.21, -82.36, 710.19, 677.22, 0.00, 0.00, 0.00, 14:27:26.563
29, -194.02, -113.15, 685.78, 653.80, 0.00, 0.00, 0.00, 14:27:26.564
30, -182.42, -104.27, 704.03, 666.78, 0.00, 0.00, 0.00, 14:27:26.564
31, -184.45, -97.00, 702.32, 672.13, 0.00, 0.00, 0.00, 14:27:26.564
32, -182.45, -101.67, 703.25, 662.74, 0.00, 0.00, 0.00, 14:27:26.564
33, -187.20, -109.09, 696.52, 648.32, 0.00, 0.00, 0.00, 14:27:26.593
34, -199.47, -113.18, 698.85, 658.46, 0.00, 0.00, 0.00, 14:27:26.593
35, -184.99, -105.14, 694.30, 656.45, 0.00, 0.00, 0.00, 14:27:26.593
36, -183.05, -103.49, 709.74, 675.45, 0.00, 0.00, 0.00, 14:27:26.593
37, -183.62, -95.45, 714.16, 673.06, 0.00, 0.00, 0.00, 14:27:26.594
38, -174.37, -94.82, 711.62, 670.24, 0.00, 0.00, 0.00, 14:27:26.594
39, -174.85, -97.30, 706.68, 669.68, 0.00, 0.00, 0.00, 14:27:26.623
40, -192.95, -120.43, 682.93, 645.53, 0.00, 0.00, 0.00, 14:27:26.623
41, -176.65, -90.46, 711.50, 676.97, 0.00, 0.00, 0.00, 14:27:26.623
42, -193.44, -110.02, 698.51, 658.90, 0.00, 0.00, 0.00, 14:27:26.623
43, -183.80, -104.85, 701.03, 662.61, 0.00, 0.00, 0.00, 14:27:26.624
44, -198.88, -115.14, 678.05, 639.75, 0.00, 0.00, 0.00, 14:27:26.624
45, -180.33, -100.15, 695.49, 655.46, 0.00, 0.00, 0.00, 14:27:26.653
46, -181.62, -101.68, 704.64, 663.74, 0.00, 0.00, 0.00, 14:27:26.653
47, -171.27, -94.74, 722.08, 671.79, 0.00, 0.00, 0.00, 14:27:26.653
48, -188.38, -110.69, 691.60, 651.39, 0.00, 0.00, 0.00, 14:27:26.653
49, -183.75, -103.57, 696.77, 657.04, 0.00, 0.00, 0.00, 14:27:26.654
50, -194.94, -111.50, 690.94, 648.78, 0.00, 0.00, 0.00, 14:27:26.654
51, -176.51, -99.59, 717.71, 680.37, 0.00, 0.00, 0.00, 14:27:26.683
52, -189.82, -109.85, 697.76, 653.93, 0.00, 0.00, 0.00, 14:27:26.683
53, -201.64, -119.07, 688.48, 652.97, 0.00, 0.00, 0.00, 14:27:26.684
54, -170.92, -87.09, 720.13, 676.15, 0.00, 0.00, 0.00, 14:27:26.684
55, -181.63, -107.46, 711.73, 669.00, 0.00, 0.00, 0.00, 14:27:26.684
56, -192.40, -110.42, 700.63, 662.75, 0.00, 0.00, 0.00, 14:27:26.684
57, -200.72, -121.82, 691.95, 649.14, 0.00, 0.00, 0.00, 14:27:26.713
58, -183.28, -101.12, 716.21, 669.57, 0.00, 0.00, 0.00, 14:27:26.713
59, -168.50, -93.52, 705.29, 660.05, 0.00, 0.00, 0.00, 14:27:26.713
60, -186.84, -104.32, 695.57, 643.21, 0.00, 0.00, 0.00, 14:27:26.713
61, -191.74, -114.32, 680.76, 637.56, 0.00, 0.00, 0.00, 14:27:26.714
62, -179.00, -101.39, 694.61, 654.40, 0.00, 0.00, 0.00, 14:27:26.714
63, -191.93, -115.33, 697.39, 662.30, 0.00, 0.00, 0.00, 14:27:26.743
64, -185.88, -103.43, 700.35, 660.53, 0.00, 0.00, 0.00, 14:27:26.743
65, -178.26, -94.40, 720.21, 678.99, 0.00, 0.00, 0.00, 14:27:26.743
66, -183.97, -106.93, 685.24, 652.30, 0.00, 0.00, 0.00, 14:27:26.743
67, -194.92, -114.77, 670.28, 629.05, 0.00, 0.00, 0.00, 14:27:26.744
68, -168.33, -86.38, 725.81, 691.28, 0.00, 0.00, 0.00, 14:27:26.744
69, -193.67, -117.02, 675.45, 642.19, 0.00, 0.00, 0.00, 14:27:26.773
70, -184.48, -102.78, 711.47, 665.55, 0.00, 0.00, 0.00, 14:27:26.773
71, -192.11, -117.62, 675.93, 639.10, 0.00, 0.00, 0.00, 14:27:26.773
72, -172.34, -92.46, 709.92, 675.15, 0.00, 0.00, 0.00, 14:27:26.773
73, -181.19, -104.90, 688.19, 640.69, 0.00, 0.00, 0.00, 14:27:26.774
74, -166.30, -93.80, 702.25, 669.95, 0.00, 0.00, 0.00, 14:27:26.774
75, -182.45, -101.16, 685.29, 652.29, 0.00, 0.00, 0.00, 14:27:26.803
76, -198.70, -119.15, 680.68, 641.19, 0.00, 0.00, 0.00, 14:27:26.803
77, -187.87, -106.28, 692.14, 647.23, 0.00, 0.00, 0.00, 14:27:26.803
78, -195.80, -113.88, 684.09, 645.14, 0.00, 0.00, 0.00, 14:27:26.804
79, -162.77, -93.90, 720.41, 672.30, 0.00, 0.00, 0.00, 14:27:26.804
80, -207.11, -119.66, 678.70, 636.01, 0.00, 0.00, 0.00, 14:27:26.804
81, -187.87, -102.31, 700.21, 657.97, 0.00, 0.00, 0.00, 14:27:26.833
82, -187.37, -107.63, 690.79, 651.18, 0.00, 0.00, 0.00, 14:27:26.833
83, -169.60, -94.14, 719.78, 687.17, 0.00, 0.00, 0.00, 14:27:26.833
84, -182.85, -98.24, 715.47, 677.72, 0.00, 0.00, 0.00, 14:27:26.833
85, -200.17, -121.79, 692.67, 645.01, 0.00, 0.00, 0.00, 14:27:26.834
86, -192.25, -122.44, 695.06, 656.38, 0.00, 0.00, 0.00, 14:27:26.834
87, -193.98, -116.49, 693.51, 653.48, 0.00, 0.00, 0.00, 14:27:26.863
88, -189.68, -107.22, 688.03, 647.47, 0.00, 0.00, 0.00, 14:27:26.863
89, -179.42, -100.70, 709.84, 671.79, 0.00, 0.00, 0.00, 14:27:26.863
90, -172.57, -87.06, 724.74, 687.55, 0.00, 0.00, 0.00, 14:27:26.863
91, -190.07, -98.34, 690.93, 649.92, 0.00, 0.00, 0.00, 14:27:26.864
92, -177.21, -97.20, 705.14, 664.07, 0.00, 0.00, 0.00, 14:27:26.864
93, -193.51, -108.36, 714.09, 670.05, 0.00, 0.00, 0.00, 14:27:26.893
94, -203.80, -137.38, 690.15, 649.07, 0.00, 0.00, 0.00, 14:27:26.893
95, -201.14, -121.89, 673.60, 617.21, 0.00, 0.00, 0.00, 14:27:26.894
96, -168.35, -72.13, 717.94, 674.95, 0.00, 0.00, 0.00, 14:27:26.894
97, -162.25, -75.93, 724.76, 690.96, 0.00, 0.00, 0.00, 14:27:26.894
98, -153.88, -69.02, 732.27, 685.30, 0.00, 0.00, 0.00, 14:27:26.895
99, -196.90, -102.68, 709.74, 657.63, 0.00, 0.00, 0.00, 14:27:26.923
100, -231.46, -165.66, 622.65, 599.11, 0.00, 0.00, 0.00, 14:27:26.923
101, 51.01, 147.44, 894.94, 859.25, 0.00, 0.00, 0.00, 14:27:26.923
102, -36.71, 58.49, 848.62, 818.11, 0.00, 0.00, 0.00, 14:27:26.923
103, 14.59, 139.18, 902.63, 864.22, 0.00, 0.00, 0.00, 14:27:26.924
104, -208.75, -139.91, 609.66, 594.23, 0.00, 0.00, 0.00, 14:27:26.924
105, -101.79, -29.27, 861.13, 754.05, 0.00, 0.00, 0.00, 14:27:26.953
106, 142.17, 230.37, 891.97, 906.58, 0.00, 0.00, 0.00, 14:27:26.953
107, -414.30, -287.59, 648.91, 593.11, 0.00, 0.00, 0.00, 14:27:26.953
108, -365.53, -343.24, 542.34, 497.49, 0.00, 0.00, 0.00, 14:27:26.953
109, -286.64, -248.40, 641.13, 603.05, 0.00, 0.00, 0.00, 14:27:26.954
110, -99.80, 35.38, 680.35, 664.29, 0.00, 0.00, 0.00, 14:27:26.954
111, 302.97, 443.33, 1367.92, 1315.06, 0.00, 0.00, 0.00, 14:27:26.983
112, -566.42, -500.29, 512.08, 480.88, 0.00, 0.00, 0.00, 14:27:26.983
113, -304.30, -212.32, 636.75, 603.52, 0.00, 0.00, 0.00, 14:27:26.984
114, -349.33, -324.70, 466.18, 414.49, 0.00, 0.00, 0.00, 14:27:26.985
115, -212.78, -93.60, 627.33, 599.96, 0.00, 0.00, 0.00, 14:27:26.985
116, -318.15, -261.69, 646.08, 596.93, 0.00, 0.00, 0.00, 14:27:26.985
117, -165.00, -81.40, 700.86, 664.52, 0.00, 0.00, 0.00, 14:27:27.013
118, -270.22, -166.22, 722.58, 669.28, 0.00, 0.00, 0.00, 14:27:27.013
119, -376.35, -380.74, 427.07, 423.70, 0.00, 0.00, 0.00, 14:27:27.013
120, -45.35, 122.89, 945.75, 858.96, 0.00, 0.00, 0.00, 14:27:27.013
121, -340.80, -260.11, 525.62, 509.65, 0.00, 0.00, 0.00, 14:27:27.014
122, -209.31, -153.57, 750.50, 693.30, 0.00, 0.00, 0.00, 14:27:27.014
123, -347.15, -291.70, 496.99, 425.28, 0.00, 0.00, 0.00, 14:27:27.043
124, -252.73, -145.82, 730.06, 615.86, 0.00, 0.00, 0.00, 14:27:27.043
125, -131.17, 24.33, 703.46, 696.23, 0.00, 0.00, 0.00, 14:27:27.043
126, -457.34, -398.73, 555.87, 423.30, 0.00, 0.00, 0.00, 14:27:27.043
127, -275.29, -225.50, 571.81, 505.13, 0.00, 0.00, 0.00, 14:27:27.044
128, -102.15, 19.99, 914.03, 825.11, 0.00, 0.00, 0.00, 14:27:27.044
129, -274.57, -234.84, 583.72, 552.28, 0.00, 0.00, 0.00, 14:27:27.073
130, -254.92, -180.98, 656.93, 607.51, 0.00, 0.00, 0.00, 14:27:27.073
131, -392.37, -328.87, 517.66, 416.57, 0.00, 0.00, 0.00, 14:27:27.073
132, -88.99, 145.46, 864.99, 763.15, 0.00, 0.00, 0.00, 14:27:27.073
133, -310.66, -288.90, 656.06, 621.96, 0.00, 0.00, 0.00, 14:27:27.074
134, -363.82, -318.70, 518.85, 460.72, 0.00, 0.00, 0.00, 14:27:27.074
135, -314.25, -225.99, 626.80, 552.48, 0.00, 0.00, 0.00, 14:27:27.103
136, -220.61, -114.24, 691.39, 638.59, 0.00, 0.00, 0.00, 14:27:27.103
137, -163.10, -103.41, 688.79, 612.65, 0.00, 0.00, 0.00, 14:27:27.103
138, -194.91, -74.87, 771.93, 722.06, 0.00, 0.00, 0.00, 14:27:27.103
139, -259.02, -181.92, 678.23, 592.33, 0.00, 0.00, 0.00, 14:27:27.104
140, -252.83, -175.25, 623.50, 573.27, 0.00, 0.00, 0.00, 14:27:27.104
141, -198.71, -114.90, 688.16, 626.26, 0.00, 0.00, 0.00, 14:27:27.133
142, -142.70, -70.54, 736.41, 689.27, 0.00, 0.00, 0.00, 14:27:27.133
143, -212.30, -110.18, 701.89, 639.81, 0.00, 0.00, 0.00, 14:27:27.134
144, -221.78, -134.11, 675.26, 616.59, 0.00, 0.00, 0.00, 14:27:27.134
145, -193.30, -104.89, 705.09, 651.00, 0.00, 0.00, 0.00, 14:27:27.134
146, -158.83, -84.06, 734.38, 681.48, 0.00, 0.00, 0.00, 14:27:27.135
147, -210.89, -108.96, 705.15, 643.07, 0.00, 0.00, 0.00, 14:27:27.163
148, -187.50, -94.27, 714.24, 662.01, 0.00, 0.00, 0.00, 14:27:27.163
149, -176.07, -86.46, 726.41, 665.00, 0.00, 0.00, 0.00, 14:27:27.163
150, -189.83, -98.40, 704.15, 649.11, 0.00, 0.00, 0.00, 14:27:27.163
151, -181.55, -94.63, 712.80, 657.99, 0.00, 0.00, 0.00, 14:27:27.164
152, -158.42, -75.60, 740.41, 693.33, 0.00, 0.00, 0.00, 14:27:27.164
153, -176.97, -98.70, 715.40, 664.96, 0.00, 0.00, 0.00, 14:27:27.193
154, -166.41, -81.38, 725.39, 677.41, 0.00, 0.00, 0.00, 14:27:27.193
155, -176.47, -90.36, 709.41, 657.33, 0.00, 0.00, 0.00, 14:27:27.193
156, -167.58, -85.66, 693.83, 646.86, 0.00, 0.00, 0.00, 14:27:27.193
157, -160.19, -81.50, 705.76, 662.86, 0.00, 0.00, 0.00, 14:27:27.194
158, -153.64, -79.38, 712.43, 674.83, 0.00, 0.00, 0.00, 14:27:27.194
159, -178.71, -92.58, 690.95, 651.55, 0.00, 0.00, 0.00, 14:27:27.223
160, -172.25, -92.70, 694.12, 655.41, 0.00, 0.00, 0.00, 14:27:27.223
161, -164.12, -86.23, 696.72, 661.21, 0.00, 0.00, 0.00, 14:27:27.223
162, -152.27, -73.85, 707.22, 672.49, 0.00, 0.00, 0.00, 14:27:27.224
163, -168.34, -85.25, 704.20, 664.44, 0.00, 0.00, 0.00, 14:27:27.224
164, -162.54, -84.26, 692.98, 660.31, 0.00, 0.00, 0.00, 14:27:27.224
165, -161.22, -84.68, 694.74, 670.18, 0.00, 0.00, 0.00, 14:27:27.252
166, -165.80, -91.65, 705.99, 672.40, 0.00, 0.00, 0.00, 14:27:27.253
167, -170.17, -94.38, 688.85, 664.44, 0.00, 0.00, 0.00, 14:27:27.253
168, -170.74, -90.10, 702.28, 666.95, 0.00, 0.00, 0.00, 14:27:27.253
169, -163.47, -86.33, 693.81, 665.69, 0.00, 0.00, 0.00, 14:27:27.254
170, -173.37, -100.63, 680.26, 658.57, 0.00, 0.00, 0.00, 14:27:27.254
171, -162.66, -83.61, 694.23, 673.83, 0.00, 0.00, 0.00, 14:27:27.283
172, -169.84, -91.96, 683.85, 654.32, 0.00, 0.00, 0.00, 14:27:27.283
173, -169.81, -93.90, 691.53, 663.42, 0.00, 0.00, 0.00, 14:27:27.284
174, -168.02, -92.92, 690.64, 666.38, 0.00, 0.00, 0.00, 14:27:27.284
175, -167.51, -92.05, 693.27, 667.48, 0.00, 0.00, 0.00, 14:27:27.285
176, -167.19, -97.41, 688.09, 666.37, 0.00, 0.00, 0.00, 14:27:27.285
177, -172.42, -89.30, 686.15, 667.39, 0.00, 0.00, 0.00, 14:27:27.313
178, -153.10, -74.46, 699.88, 690.28, 0.00, 0.00, 0.00, 14:27:27.313
179, -175.81, -100.49, 686.05, 679.12, 0.00, 0.00, 0.00, 14:27:27.313
180, -174.61, -101.00, 686.89, 670.38, 0.00, 0.00, 0.00, 14:27:27.313
181, -160.34, -85.36, 712.05, 694.10, 0.00, 0.00, 0.00, 14:27:27.314
182, -165.55, -85.89, 715.61, 693.68, 0.00, 0.00, 0.00, 14:27:27.314
183, -177.93, -92.90, 697.27, 676.24, 0.00, 0.00, 0.00, 14:27:27.343
184, -168.30, -94.33, 707.11, 677.11, 0.00, 0.00, 0.00, 14:27:27.343
185, -165.73, -84.49, 699.27, 666.25, 0.00, 0.00, 0.00, 14:27:27.343
186, -169.89, -83.92, 694.10, 663.91, 0.00, 0.00, 0.00, 14:27:27.343
187, -171.71, -90.98, 694.33, 660.98, 0.00, 0.00, 0.00, 14:27:27.344
188, -174.65, -93.71, 691.97, 667.41, 0.00, 0.00, 0.00, 14:27:27.344
189, -172.10, -89.25, 702.71, 683.27, 0.00, 0.00, 0.00, 14:27:27.373
190, -170.46, -101.76, 689.84, 661.31, 0.00, 0.00, 0.00, 14:27:27.373
191, -170.07, -92.18, 694.93, 664.92, 0.00, 0.00, 0.00, 14:27:27.373
192, -177.76, -97.42, 691.34, 658.49, 0.00, 0.00, 0.00, 14:27:27.373
193, -170.85, -94.40, 698.85, 671.74, 0.00, 0.00, 0.00, 14:27:27.374
194, -179.17, -101.16, 700.07, 665.22, 0.00, 0.00, 0.00, 14:27:27.374
195, -180.43, -97.78, 706.92, 669.50, 0.00, 0.00, 0.00, 14:27:27.402
196, -186.17, -100.81, 689.24, 660.01, 0.00, 0.00, 0.00, 14:27:27.403
197, -182.28, -94.61, 700.72, 668.45, 0.00, 0.00, 0.00, 14:27:27.403
198, -183.60, -95.06, 696.45, 653.64, 0.00, 0.00, 0.00, 14:27:27.403
199, -181.18, -96.26, 699.23, 664.56, 0.00, 0.00, 0.00, 14:27:27.404
200, -179.09, -95.60, 703.08, 671.38, 0.00, 0.00, 0.00, 14:27:27.404
201, -158.62, -83.61, 712.54, 674.76, 0.00, 0.00, 0.00, 14:27:27.433
202, -171.85, -94.20, 697.58, 661.08, 0.00, 0.00, 0.00, 14:27:27.433
203, -175.08, -102.01, 702.57, 669.01, 0.00, 0.00, 0.00, 14:27:27.434
