%OpenBCI Raw EEG Data
%
%Sample Rate = 256.0 Hz
%First Column = SampleIndex
%Other Columns = EEG data in microvolts followed by Accel Data (in G) interleaved with Aux Data
1, 7631.04, -5670.07, 2201.94, -3628.73, 0.00, 0.00, 0.00, 0.00, 1.57, 1.64, 1.70
2, 7667.52, -5713.43, 2222.73, -3646.48, 0.00, 0.00, 0.00, 0.00, 1.57, 1.64, 1.70
3, 7660.02, -5669.06, 2412.09, -3893.67, 0.00, 0.00, 0.00, 0.00, 1.57, 1.64, 1.70
4, 7596.85, -5583.13, 2308.17, -3758.42, 0.00, 0.00, 0.00, 0.00, 1.57, 1.64, 1.70
5, 7623.87, -5646.71, 2216.88, -3643.28, 0.00, 0.00, 0.00, 0.00, 1.57, 1.64, 1.70
6, 7675.26, -5723.04, 2211.29, -3628.60, 0.00, 0.00, 0.00, 0.00, 1.57, 1.64, 1.70
7, 7680.13, -5702.57, 2379.12, -3845.75, 0.00, 0.00, 0.00, 0.00, 1.57, 1.64, 1.70
8, 7616.44, -5598.29, 2365.94, -3835.70, 0.00, 0.00, 0.00, 0.00, 1.57, 1.64, 1.70
9, 7611.74, -5621.45, 2231.03, -3663.86, 0.00, 0.00, 0.00, 0.00, 1.57, 1.64, 1.70
10, 7667.83, -5715.53, 2204.29, -3617.83, 0.00, 0.00, 0.00, 0.00, 1.57, 1.64, 1.70
11, 7679.02, -5727.16, 2325.97, -3774.87, 0.00, 0.00, 0.00, 0.00, 1.57, 1.64, 1.70
12, 7634.09, -5634.85, 2416.34, -3900.05, 0.00, 0.00, 0.00, 0.00, 1.57, 1.64, 1.70
13, 7593.35, -5600.17, 2251.49, -3688.41, 0.00, 0.00, 0.00, 0.00, 1.57, 1.64, 1.70
14, 7642.83, -5688.75, 2203.36, -3628.13, 0.00, 0.00, 0.00, 0.00, 1.57, 1.64, 1.70
15, 7672.78, -5726.50, 2266.21, -3699.20, 0.00, 0.00, 0.00, 0.00, 1.57, 1.64, 1.70
16, 7655.36, -5654.62, 2418.21, -3907.25, 0.00, 0.00, 0.00, 0.00, 1.57, 1.64, 1.70
17, 7598.93, -5582.51, 2283.65, -3726.18, 0.00, 0.00, 0.00, 0.00, 1.57, 1.64, 1.70
18, 7635.33, -5666.16, 2208.45, -3640.81, 0.00, 0.00, 0.00, 0.00, 1.57, 1.64, 1.70
19, 7678.04, -5721.39, 2230.62, -3652.93, 0.00, 0.00, 0.00, 0.00, 1.57, 1.64, 1.70
20, 7674.46, -5684.06, 2413.30, -3902.82, 0.00, 0.00, 0.00, 0.00, 1.57, 1.64, 1.70
21, 7606.07, -5586.50, 2326.33, -3787.24, 0.00, 0.00, 0.00, 0.00, 1.57, 1.64, 1.70
22, 7622.60, -5639.70, 2212.75, -3649.61, 0.00, 0.00, 0.00, 0.00, 1.57, 1.64, 1.70
23, 7671.07, -5719.65, 2201.70, -3623.47, 0.00, 0.00, 0.00, 0.00, 1.57, 1.64, 1.70
24, 7685.01, -5710.85, 2366.56, -3835.49, 0.00, 0.00, 0.00, 0.00, 1.57, 1.64, 1.70
25, 7620.05, -5612.27, 2379.02, -3858.10, 0.00, 0.00, 0.00, 0.00, 1.57, 1.64, 1.70
26, 7609.09, -5622.73, 2234.12, -3670.84, 0.00, 0.00, 0.00, 0.00, 1.57, 1.64, 1.70
27, 7670.32, -5707.68, 2196.66, -3616.41, 0.00, 0.00, 0.00, 0.00, 1.57, 1.64, 1.70
28, 7681.59, -5720.38, 2302.23, -3749.99, 0.00, 0.00, 0.00, 0.00, 1.57, 1.64, 1.70
29, 7639.42, -5640.03, 2419.18, -3901.41, 0.00, 0.00, 0.00, 0.00, 1.57, 1.64, 1.70
30, 7596.14, -5597.04, 2252.09, -3697.73, 0.00, 0.00, 0.00, 0.00, 1.57, 1.64, 1.70
31, 7653.19, -5694.08, 2210.81, -3637.36, 0.00, 0.00, 0.00, 0.00, 1.57, 1.64, 1.70
32, 7687.06, -5727.31, 2253.39, -3682.46, 0.00, 0.00, 0.00, 0.00, 1.57, 1.64, 1.70
33, 7661.02, -5659.92, 2419.95, -3908.90, 0.00, 0.00, 0.00, 0.00, 1.57, 1.64, 1.70
34, 7596.98, -5586.96, 2288.01, -3737.91, 0.00, 0.00, 0.00, 0.00, 1.57, 1.64, 1.70
35, 7630.61, -5664.85, 2207.68, -3633.59, 0.00, 0.00, 0.00, 0.00, 1.57, 1.64, 1.70
36, 7677.79, -5723.33, 2219.65, -3642.23, 0.00, 0.00, 0.00, 0.00, 1.57, 1.64, 1.70
37, 7678.35, -5686.23, 2404.58, -3884.42, 0.00, 0.00, 0.00, 0.00, 1.57, 1.64, 1.70
38, 7605.85, -5582.37, 2332.92, -3794.27, 0.00, 0.00, 0.00, 0.00, 1.57, 1.64, 1.70
39, 7619.50, -5622.48, 2218.34, -3648.49, 0.00, 0.00, 0.00, 0.00, 1.57, 1.64, 1.70
40, 7669.56, -5708.41, 2194.44, -3622.24, 0.00, 0.00, 0.00, 0.00, 1.57, 1.64, 1.70
41, 7680.91, -5705.67, 2346.15, -3808.66, 0.00, 0.00, 0.00, 0.00, 1.57, 1.64, 1.70
42, 7623.70, -5600.08, 2382.47, -3860.37, 0.00, 0.00, 0.00, 0.00, 1.57, 1.64, 1.70
43, 7605.47, -5598.35, 2237.03, -3667.18, 0.00, 0.00, 0.00, 0.00, 1.57, 1.64, 1.70
44, 7663.55, -5693.74, 2195.14, -3616.38, 0.00, 0.00, 0.00, 0.00, 1.57, 1.64, 1.70
45, 7680.62, -5711.36, 2282.61, -3729.20, 0.00, 0.00, 0.00, 0.00, 1.57, 1.64, 1.70
46, 7648.58, -5627.29, 2420.11, -3900.90, 0.00, 0.00, 0.00, 0.00, 1.57, 1.64, 1.70
47, 7600.85, -5574.28, 2250.57, -3707.02, 0.00, 0.00, 0.00, 0.00, 1.57, 1.64, 1.70
48, 7643.03, -5674.50, 2197.04, -3628.29, 0.00, 0.00, 0.00, 0.00, 1.57, 1.64, 1.70
49, 7675.44, -5712.25, 2233.80, -3661.17, 0.00, 0.00, 0.00, 0.00, 1.57, 1.64, 1.70
50, 7662.06, -5654.44, 2418.65, -3897.96, 0.00, 0.00, 0.00, 0.00, 1.57, 1.64, 1.70
51, 7598.46, -5570.87, 2297.30, -3752.15, 0.00, 0.00, 0.00, 0.00, 1.57, 1.64, 1.70
52, 7638.50, -5644.52, 2210.37, -3647.94, 0.00, 0.00, 0.00, 0.00, 1.57, 1.64, 1.70
53, 7678.57, -5713.95, 2205.14, -3627.95, 0.00, 0.00, 0.00, 0.00, 1.57, 1.64, 1.70
54, 7680.08, -5687.21, 2390.11, -3860.86, 0.00, 0.00, 0.00, 0.00, 1.57, 1.64, 1.70
55, 7611.78, -5580.65, 2346.94, -3816.70, 0.00, 0.00, 0.00, 0.00, 1.57, 1.64, 1.70
56, 7617.48, -5617.97, 2226.41, -3662.56, 0.00, 0.00, 0.00, 0.00, 1.57, 1.64, 1.70
57, 7670.33, -5703.84, 2192.12, -3610.44, 0.00, 0.00, 0.00, 0.00, 1.57, 1.64, 1.70
58, 7688.69, -5702.25, 2326.53, -3787.80, 0.00, 0.00, 0.00, 0.00, 1.57, 1.64, 1.70
59, 7636.44, -5596.43, 2391.74, -3870.45, 0.00, 0.00, 0.00, 0.00, 1.57, 1.64, 1.70
60, 7608.48, -5586.02, 2242.40, -3679.44, 0.00, 0.00, 0.00, 0.00, 1.57, 1.64, 1.70
61, 7652.17, -5673.93, 2183.29, -3615.62, 0.00, 0.00, 0.00, 0.00, 1.57, 1.64, 1.70
62, 7691.39, -5703.97, 2274.03, -3717.16, 0.00, 0.00, 0.00, 0.00, 1.57, 1.64, 1.70
63, 7653.42, -5630.35, 2421.40, -3909.92, 0.00, 0.00, 0.00, 0.00, 1.57, 1.64, 1.70
64, 7609.11, -5575.47, 2269.30, -3719.57, 0.00, 0.00, 0.00, 0.00, 1.57, 1.64, 1.70
65, 7644.63, -5664.33, 2198.74, -3632.73, 0.00, 0.00, 0.00, 0.00, 1.57, 1.64, 1.70
66, 7679.97, -5710.86, 2226.12, -3660.86, 0.00, 0.00, 0.00, 0.00, 1.57, 1.64, 1.70
67, 7671.13, -5648.94, 2410.40, -3894.54, 0.00, 0.00, 0.00, 0.00, 1.57, 1.64, 1.70
68, 7606.68, -5566.46, 2310.45, -3768.19, 0.00, 0.00, 0.00, 0.00, 1.57, 1.64, 1.70
69, 7633.26, -5634.25, 2211.29, -3645.72, 0.00, 0.00, 0.00, 0.00, 1.57, 1.64, 1.70
70, 7682.39, -5698.86, 2204.21, -3619.80, 0.00, 0.00, 0.00, 0.00, 1.57, 1.64, 1.70
71, 7683.06, -5685.94, 2370.98, -3844.55, 0.00, 0.00, 0.00, 0.00, 1.57, 1.64, 1.70
72, 7622.87, -5583.29, 2364.23, -3837.88, 0.00, 0.00, 0.00, 0.00, 1.57, 1.64, 1.70
73, 7617.89, -5599.47, 2228.36, -3664.55, 0.00, 0.00, 0.00, 0.00, 1.57, 1.64, 1.70
74, 7676.17, -5691.41, 2196.86, -3615.87, 0.00, 0.00, 0.00, 0.00, 1.57, 1.64, 1.70
75, 7691.45, -5701.77, 2317.82, -3770.45, 0.00, 0.00, 0.00, 0.00, 1.57, 1.64, 1.70
76, 7637.24, -5613.30, 2401.26, -3882.11, 0.00, 0.00, 0.00, 0.00, 1.57, 1.64, 1.70
77, 7613.07, -5590.56, 2251.33, -3696.82, 0.00, 0.00, 0.00, 0.00, 1.57, 1.64, 1.70
78, 7666.57, -5676.08, 2198.41, -3627.72, 0.00, 0.00, 0.00, 0.00, 1.57, 1.64, 1.70
79, 7683.32, -5687.68, 2247.01, -3683.05, 0.00, 0.00, 0.00, 0.00, 1.57, 1.64, 1.70
80, 7653.87, -5621.44, 2409.49, -3899.02, 0.00, 0.00, 0.00, 0.00, 1.57, 1.64, 1.70
81, 7593.78, -5553.41, 2267.88, -3717.07, 0.00, 0.00, 0.00, 0.00, 1.57, 1.64, 1.70
82, 7638.75, -5644.75, 2198.98, -3630.89, 0.00, 0.00, 0.00, 0.00, 1.57, 1.64, 1.70
83, 7683.31, -5695.49, 2213.10, -3639.98, 0.00, 0.00, 0.00, 0.00, 1.57, 1.64, 1.70
84, 7673.94, -5654.40, 2399.07, -3883.89, 0.00, 0.00, 0.00, 0.00, 1.57, 1.64, 1.70
85, 7601.55, -5558.60, 2311.36, -3775.01, 0.00, 0.00, 0.00, 0.00, 1.57, 1.64, 1.70
86, 7623.93, -5618.41, 2210.77, -3642.16, 0.00, 0.00, 0.00, 0.00, 1.57, 1.64, 1.70
87, 7672.96, -5695.06, 2187.61, -3615.03, 0.00, 0.00, 0.00, 0.00, 1.57, 1.64, 1.70
88, 7685.82, -5678.31, 2351.60, -3823.93, 0.00, 0.00, 0.00, 0.00, 1.57, 1.64, 1.70
89, 7631.44, -5586.14, 2372.14, -3853.05, 0.00, 0.00, 0.00, 0.00, 1.57, 1.64, 1.70
90, 7611.62, -5590.78, 2230.17, -3668.99, 0.00, 0.00, 0.00, 0.00, 1.57, 1.64, 1.70
91, 7661.06, -5677.28, 2181.94, -3609.45, 0.00, 0.00, 0.00, 0.00, 1.57, 1.64, 1.70
92, 7688.22, -5688.32, 2290.91, -3744.01, 0.00, 0.00, 0.00, 0.00, 1.57, 1.64, 1.70
93, 7642.41, -5589.07, 2407.74, -3885.94, 0.00, 0.00, 0.00, 0.00, 1.57, 1.64, 1.70
94, 7600.04, -5554.28, 2246.48, -3687.91, 0.00, 0.00, 0.00, 0.00, 1.57, 1.64, 1.70
95, 7643.26, -5647.87, 2187.47, -3616.38, 0.00, 0.00, 0.00, 0.00, 1.57, 1.64, 1.70
96, 7682.93, -5694.82, 2240.56, -3672.20, 0.00, 0.00, 0.00, 0.00, 1.57, 1.64, 1.70
97, 7661.06, -5625.47, 2411.81, -3898.07, 0.00, 0.00, 0.00, 0.00, 1.57, 1.64, 1.70
98, 7604.50, -5558.13, 2277.17, -3738.33, 0.00, 0.00, 0.00, 0.00, 1.57, 1.64, 1.70
99, 7634.94, -5630.82, 2197.47, -3635.70, 0.00, 0.00, 0.00, 0.00, 1.57, 1.64, 1.70
100, 7681.37, -5692.59, 2205.53, -3633.29, 0.00, 0.00, 0.00, 0.00, 1.57, 1.64, 1.70
101, 7677.12, -5658.87, 2386.57, -3866.63, 0.00, 0.00, 0.00, 0.00, 1.57, 1.64, 1.70
102, 7614.39, -5558.33, 2327.35, -3791.21, 0.00, 0.00, 0.00, 0.00, 1.57, 1.64, 1.70
103, 7619.61, -5587.70, 2201.75, -3636.59, 0.00, 0.00, 0.00, 0.00, 1.57, 1.64, 1.70
104, 7669.90, -5665.71, 2177.00, -3599.12, 0.00, 0.00, 0.00, 0.00, 1.57, 1.64, 1.70
105, 7688.73, -5661.46, 2332.57, -3802.46, 0.00, 0.00, 0.00, 0.00, 1.57, 1.64, 1.70
106, 7637.60, -5572.61, 2386.36, -3860.91, 0.00, 0.00, 0.00, 0.00, 1.57, 1.64, 1.70
107, 7609.62, -5556.00, 2222.36, -3654.69, 0.00, 0.00, 0.00, 0.00, 1.57, 1.64, 1.70
108, 7666.63, -5641.33, 2180.30, -3604.00, 0.00, 0.00, 0.00, 0.00, 1.57, 1.64, 1.70
109, 7685.03, -5658.25, 2269.51, -3715.38, 0.00, 0.00, 0.00, 0.00, 1.57, 1.64, 1.70
110, 7637.00, -5574.35, 2395.86, -3885.76, 0.00, 0.00, 0.00, 0.00, 1.57, 1.64, 1.70
111, 7593.70, -5530.56, 2236.07, -3683.30, 0.00, 0.00, 0.00, 0.00, 1.57, 1.64, 1.70
112, 7636.85, -5625.80, 2182.21, -3607.67, 0.00, 0.00, 0.00, 0.00, 1.57, 1.64, 1.70
113, 7676.92, -5675.61, 2225.99, -3654.39, 0.00, 0.00, 0.00, 0.00, 1.57, 1.64, 1.70
114, 7672.03, -5623.53, 2407.18, -3888.96, 0.00, 0.00, 0.00, 0.00, 1.57, 1.64, 1.70
115, 7609.50, -5525.95, 2281.71, -3739.78, 0.00, 0.00, 0.00, 0.00, 1.57, 1.64, 1.70
116, 7637.92, -5591.40, 2194.84, -3622.84, 0.00, 0.00, 0.00, 0.00, 1.57, 1.64, 1.70
117, 7686.20, -5673.28, 2199.22, -3614.97, 0.00, 0.00, 0.00, 0.00, 1.57, 1.64, 1.70
118, 7682.65, -5634.03, 2372.01, -3847.81, 0.00, 0.00, 0.00, 0.00, 1.57, 1.64, 1.70
119, 7620.15, -5534.49, 2340.26, -3803.86, 0.00, 0.00, 0.00, 0.00, 1.57, 1.64, 1.70
120, 7623.64, -5573.99, 2210.16, -3645.12, 0.00, 0.00, 0.00, 0.00, 1.57, 1.64, 1.70
121, 7684.55, -5667.87, 2187.23, -3605.09, 0.00, 0.00, 0.00, 0.00, 1.57, 1.64, 1.70
122, 7690.74, -5664.29, 2317.37, -3775.45, 0.00, 0.00, 0.00, 0.00, 1.57, 1.64, 1.70
123, 7629.67, -5548.73, 2376.64, -3859.41, 0.00, 0.00, 0.00, 0.00, 1.57, 1.64, 1.70
124, 7600.37, -5535.28, 2221.98, -3667.13, 0.00, 0.00, 0.00, 0.00, 1.57, 1.64, 1.70
125, 7662.42, -5634.60, 2186.87, -3612.84, 0.00, 0.00, 0.00, 0.00, 1.57, 1.64, 1.70
126, 7681.48, -5662.02, 2257.66, -3694.09, 0.00, 0.00, 0.00, 0.00, 1.57, 1.64, 1.70
127, 7659.01, -5594.91, 2414.56, -3897.90, 0.00, 0.00, 0.00, 0.00, 1.57, 1.64, 1.70
128, 7602.53, -5528.21, 2258.42, -3700.14, 0.00, 0.00, 0.00, 0.00, 1.57, 1.64, 1.70
129, 7638.44, -5609.41, 2187.16, -3616.29, 0.00, 0.00, 0.00, 0.00, 1.57, 1.64, 1.70
130, 7688.52, -5669.81, 2217.12, -3642.87, 0.00, 0.00, 0.00, 0.00, 1.57, 1.64, 1.70
131, 7667.64, -5611.63, 2397.99, -3880.42, 0.00, 0.00, 0.00, 0.00, 1.57, 1.64, 1.70
132, 7609.28, -5520.20, 2291.33, -3757.36, 0.00, 0.00, 0.00, 0.00, 1.57, 1.64, 1.70
133, 7630.56, -5594.05, 2196.98, -3626.52, 0.00, 0.00, 0.00, 0.00, 1.57, 1.64, 1.70
134, 7677.05, -5658.62, 2186.69, -3607.44, 0.00, 0.00, 0.00, 0.00, 1.57, 1.64, 1.70
135, 7680.68, -5627.22, 2352.57, -3823.60, 0.00, 0.00, 0.00, 0.00, 1.57, 1.64, 1.70
136, 7620.34, -5530.74, 2344.56, -3820.05, 0.00, 0.00, 0.00, 0.00, 1.57, 1.64, 1.70
137, 7615.32, -5565.84, 2214.39, -3652.29, 0.00, 0.00, 0.00, 0.00, 1.57, 1.64, 1.70
138, 7680.29, -5657.45, 2181.65, -3607.20, 0.00, 0.00, 0.00, 0.00, 1.57, 1.64, 1.70
139, 7696.39, -5660.31, 2304.05, -3761.62, 0.00, 0.00, 0.00, 0.00, 1.57, 1.64, 1.70
140, 7642.00, -5569.70, 2398.48, -3877.11, 0.00, 0.00, 0.00, 0.00, 1.57, 1.64, 1.70
141, 7609.64, -5536.12, 2239.79, -3686.97, 0.00, 0.00, 0.00, 0.00, 1.57, 1.64, 1.70
142, 7665.12, -5628.70, 2193.11, -3609.18, 0.00, 0.00, 0.00, 0.00, 1.57, 1.64, 1.70
143, 7686.88, -5657.14, 2241.10, -3676.30, 0.00, 0.00, 0.00, 0.00, 1.57, 1.64, 1.70
144, 7664.57, -5591.07, 2407.16, -3890.67, 0.00, 0.00, 0.00, 0.00, 1.57, 1.64, 1.70
145, 7608.79, -5520.31, 2260.21, -3705.37, 0.00, 0.00, 0.00, 0.00, 1.57, 1.64, 1.70
146, 7643.78, -5601.79, 2189.56, -3614.37, 0.00, 0.00, 0.00, 0.00, 1.57, 1.64, 1.70
147, 7680.05, -5669.20, 2206.28, -3633.15, 0.00, 0.00, 0.00, 0.00, 1.57, 1.64, 1.70
148, 7671.22, -5617.48, 2393.49, -3867.73, 0.00, 0.00, 0.00, 0.00, 1.57, 1.64, 1.70
149, 7604.37, -5519.44, 2313.99, -3769.35, 0.00, 0.00, 0.00, 0.00, 1.57, 1.64, 1.70
150, 7621.73, -5571.33, 2202.05, -3629.75, 0.00, 0.00, 0.00, 0.00, 1.57, 1.64, 1.70
151, 7664.83, -5649.70, 2186.13, -3602.96, 0.00, 0.00, 0.00, 0.00, 1.57, 1.64, 1.70
152, 7679.75, -5638.78, 2345.36, -3811.98, 0.00, 0.00, 0.00, 0.00, 1.57, 1.64, 1.70
153, 7621.43, -5543.56, 2363.91, -3836.37, 0.00, 0.00, 0.00, 0.00, 1.57, 1.64, 1.70
154, 7607.45, -5537.72, 2210.19, -3642.40, 0.00, 0.00, 0.00, 0.00, 1.57, 1.64, 1.70
155, 7662.71, -5633.38, 2177.61, -3603.13, 0.00, 0.00, 0.00, 0.00, 1.57, 1.64, 1.70
156, 7683.16, -5653.99, 2284.18, -3732.39, 0.00, 0.00, 0.00, 0.00, 1.57, 1.64, 1.70
157, 7637.04, -5562.78, 2388.50, -3882.77, 0.00, 0.00, 0.00, 0.00, 1.57, 1.64, 1.70
158, 7598.06, -5532.37, 2237.63, -3686.60, 0.00, 0.00, 0.00, 0.00, 1.57, 1.64, 1.70
159, 7648.62, -5623.56, 2186.12, -3609.28, 0.00, 0.00, 0.00, 0.00, 1.57, 1.64, 1.70
160, 7687.08, -5653.58, 2229.86, -3664.23, 0.00, 0.00, 0.00, 0.00, 1.57, 1.64, 1.70
161, 7662.63, -5593.76, 2397.37, -3884.65, 0.00, 0.00, 0.00, 0.00, 1.57, 1.64, 1.70
162, 7599.67, -5510.49, 2264.70, -3719.96, 0.00, 0.00, 0.00, 0.00, 1.57, 1.64, 1.70
163, 7625.17, -5584.06, 2181.89, -3612.95, 0.00, 0.00, 0.00, 0.00, 1.57, 1.64, 1.70
164, 7674.53, -5649.38, 2188.85, -3610.69, 0.00, 0.00, 0.00, 0.00, 1.57, 1.64, 1.70
165, 7677.49, -5623.38, 2378.39, -3856.52, 0.00, 0.00, 0.00, 0.00, 1.57, 1.64, 1.70
166, 7610.04, -5525.08, 2324.01, -3781.65, 0.00, 0.00, 0.00, 0.00, 1.57, 1.64, 1.70
167, 7622.84, -5568.15, 2196.26, -3637.08, 0.00, 0.00, 0.00, 0.00, 1.57, 1.64, 1.70
168, 7687.79, -5655.50, 2184.08, -3609.71, 0.00, 0.00, 0.00, 0.00, 1.57, 1.64, 1.70
169, 7697.81, -5645.81, 2326.80, -3796.52, 0.00, 0.00, 0.00, 0.00, 1.57, 1.64, 1.70
170, 7625.83, -5533.10, 2365.89, -3850.36, 0.00, 0.00, 0.00, 0.00, 1.57, 1.64, 1.70
171, 7608.39, -5537.96, 2216.43, -3652.94, 0.00, 0.00, 0.00, 0.00, 1.57, 1.64, 1.70
172, 7669.19, -5639.47, 2174.76, -3603.16, 0.00, 0.00, 0.00, 0.00, 1.57, 1.64, 1.70
173, 7683.33, -5648.22, 2257.50, -3701.79, 0.00, 0.00, 0.00, 0.00, 1.57, 1.64, 1.70
174, 7650.56, -5569.55, 2408.66, -3890.79, 0.00, 0.00, 0.00, 0.00, 1.57, 1.64, 1.70
175, 7608.23, -5530.10, 2252.68, -3699.18, 0.00, 0.00, 0.00, 0.00, 1.57, 1.64, 1.70
176, 7650.21, -5610.03, 2183.65, -3608.74, 0.00, 0.00, 0.00, 0.00, 1.57, 1.64, 1.70
177, 7690.41, -5658.34, 2222.68, -3654.49, 0.00, 0.00, 0.00, 0.00, 1.57, 1.64, 1.70
178, 7673.56, -5600.43, 2390.70, -3882.13, 0.00, 0.00, 0.00, 0.00, 1.57, 1.64, 1.70
179, 7602.00, -5517.23, 2280.55, -3741.83, 0.00, 0.00, 0.00, 0.00, 1.57, 1.64, 1.70
180, 7629.65, -5587.38, 2183.93, -3620.87, 0.00, 0.00, 0.00, 0.00, 1.57, 1.64, 1.70
181, 7677.12, -5646.47, 2182.17, -3604.16, 0.00, 0.00, 0.00, 0.00, 1.57, 1.64, 1.70
182, 7683.05, -5626.80, 2361.82, -3842.79, 0.00, 0.00, 0.00, 0.00, 1.57, 1.64, 1.70
183, 7618.76, -5530.13, 2332.58, -3805.99, 0.00, 0.00, 0.00, 0.00, 1.57, 1.64, 1.70
184, 7616.50, -5555.87, 2197.89, -3633.52, 0.00, 0.00, 0.00, 0.00, 1.57, 1.64, 1.70
185, 7671.38, -5635.41, 2163.37, -3589.60, 0.00, 0.00, 0.00, 0.00, 1.57, 1.64, 1.70
186, 7692.11, -5643.20, 2305.29, -3768.06, 0.00, 0.00, 0.00, 0.00, 1.57, 1.64, 1.70
187, 7636.55, -5546.90, 2388.65, -3864.02, 0.00, 0.00, 0.00, 0.00, 1.57, 1.64, 1.70
188, 7614.07, -5540.81, 2230.04, -3673.30, 0.00, 0.00, 0.00, 0.00, 1.57, 1.64, 1.70
189, 7659.63, -5623.10, 2175.96, -3602.04, 0.00, 0.00, 0.00, 0.00, 1.57, 1.64, 1.70
190, 7685.78, -5649.87, 2249.80, -3687.92, 0.00, 0.00, 0.00, 0.00, 1.57, 1.64, 1.70
191, 7662.27, -5571.39, 2400.38, -3886.06, 0.00, 0.00, 0.00, 0.00, 1.57, 1.64, 1.70
192, 7614.77, -5513.56, 2255.21, -3706.43, 0.00, 0.00, 0.00, 0.00, 1.57, 1.64, 1.70
193, 7646.97, -5598.61, 2179.28, -3612.89, 0.00, 0.00, 0.00, 0.00, 1.57, 1.64, 1.70
194, 7687.77, -5649.57, 2207.71, -3628.23, 0.00, 0.00, 0.00, 0.00, 1.57, 1.64, 1.70
195, 7674.88, -5601.33, 2388.86, -3879.98, 0.00, 0.00, 0.00, 0.00, 1.57, 1.64, 1.70
196, 7614.39, -5516.22, 2292.82, -3752.82, 0.00, 0.00, 0.00, 0.00, 1.57, 1.64, 1.70
197, 7637.48, -5572.58, 2182.43, -3621.24, 0.00, 0.00, 0.00, 0.00, 1.57, 1.64, 1.70
198, 7668.73, -5639.78, 2167.69, -3593.07, 0.00, 0.00, 0.00, 0.00, 1.57, 1.64, 1.70
199, 7678.54, -5626.34, 2346.24, -3818.37, 0.00, 0.00, 0.00, 0.00, 1.57, 1.64, 1.70
200, 7628.94, -5534.61, 2346.43, -3822.98, 0.00, 0.00, 0.00, 0.00, 1.57, 1.64, 1.70
201, 7614.69, -5549.71, 2208.77, -3654.02, 0.00, 0.00, 0.00, 0.00, 1.57, 1.64, 1.70
202, 7663.86, -5633.03, 2168.20, -3591.74, 0.00, 0.00, 0.00, 0.00, 1.57, 1.64, 1.70
203, 7680.27, -5643.69, 2287.92, -3745.32, 0.00, 0.00, 0.00, 0.00, 1.57, 1.64, 1.70
204, 7633.12, -5547.62, 2377.13, -3869.48, 0.00, 0.00, 0.00, 0.00, 1.57, 1.64, 1.70
205, 7602.51, -5519.47, 2220.67, -3670.91, 0.00, 0.00, 0.00, 0.00, 1.57, 1.64, 1.70
206, 7652.48, -5617.97, 2173.09, -3604.78, 0.00, 0.00, 0.00, 0.00, 1.57, 1.64, 1.70
207, 7686.78, -5651.69, 2242.67, -3678.82, 0.00, 0.00, 0.00, 0.00, 1.57, 1.64, 1.70
208, 7664.00, -5581.41, 2401.43, -3887.80, 0.00, 0.00, 0.00, 0.00, 1.57, 1.64, 1.70
209, 7595.98, -5519.51, 2255.35, -3704.27, 0.00, 0.00, 0.00, 0.00, 1.57, 1.64, 1.70
210, 7633.66, -5589.75, 2181.47, -3607.91, 0.00, 0.00, 0.00, 0.00, 1.57, 1.64, 1.70
211, 7679.76, -5640.30, 2190.35, -3615.91, 0.00, 0.00, 0.00, 0.00, 1.57, 1.64, 1.70
212, 7688.06, -5605.60, 2386.60, -3872.30, 0.00, 0.00, 0.00, 0.00, 1.57, 1.64, 1.70
213, 7608.29, -5515.42, 2300.18, -3771.37, 0.00, 0.00, 0.00, 0.00, 1.57, 1.64, 1.70
214, 7618.61, -5556.79, 2186.64, -3625.68, 0.00, 0.00, 0.00, 0.00, 1.57, 1.64, 1.70
215, 7671.44, -5636.17, 2170.30, -3592.37, 0.00, 0.00, 0.00, 0.00, 1.57, 1.64, 1.70
216, 7693.10, -5631.48, 2336.43, -3802.79, 0.00, 0.00, 0.00, 0.00, 1.57, 1.64, 1.70
217, 7634.44, -5528.13, 2357.86, -3839.07, 0.00, 0.00, 0.00, 0.00, 1.57, 1.64, 1.70
218, 7611.43, -5526.61, 2203.96, -3651.03, 0.00, 0.00, 0.00, 0.00, 1.57, 1.64, 1.70
219, 7665.06, -5628.29, 2168.19, -3594.06, 0.00, 0.00, 0.00, 0.00, 1.57, 1.64, 1.70
220, 7686.26, -5642.43, 2273.77, -3727.87, 0.00, 0.00, 0.00, 0.00, 1.57, 1.64, 1.70
221, 7648.56, -5551.40, 2390.81, -3876.69, 0.00, 0.00, 0.00, 0.00, 1.57, 1.64, 1.70
222, 7597.18, -5508.61, 2224.31, -3673.01, 0.00, 0.00, 0.00, 0.00, 1.57, 1.64, 1.70
223, 7644.87, -5599.00, 2171.78, -3600.17, 0.00, 0.00, 0.00, 0.00, 1.57, 1.64, 1.70
224, 7686.01, -5647.56, 2215.24, -3654.03, 0.00, 0.00, 0.00, 0.00, 1.57, 1.64, 1.70
225, 7668.77, -5588.15, 2397.22, -3885.06, 0.00, 0.00, 0.00, 0.00, 1.57, 1.64, 1.70
226, 7601.81, -5499.68, 2260.26, -3711.49, 0.00, 0.00, 0.00, 0.00, 1.57, 1.64, 1.70
227, 7627.76, -5569.20, 2174.75, -3611.96, 0.00, 0.00, 0.00, 0.00, 1.57, 1.64, 1.70
228, 7677.12, -5632.31, 2178.58, -3611.54, 0.00, 0.00, 0.00, 0.00, 1.57, 1.64, 1.70
229, 7679.63, -5593.31, 2363.51, -3849.23, 0.00, 0.00, 0.00, 0.00, 1.57, 1.64, 1.70
230, 7617.04, -5500.04, 2304.68, -3779.63, 0.00, 0.00, 0.00, 0.00, 1.57, 1.64, 1.70
231, 7615.25, -5542.71, 2184.85, -3628.83, 0.00, 0.00, 0.00, 0.00, 1.57, 1.64, 1.70
232, 7667.67, -5625.29, 2168.05, -3591.40, 0.00, 0.00, 0.00, 0.00, 1.57, 1.64, 1.70
233, 7682.85, -5616.75, 2304.61, -3767.47, 0.00, 0.00, 0.00, 0.00, 1.57, 1.64, 1.70
234, 7624.31, -5514.00, 2351.84, -3835.14, 0.00, 0.00, 0.00, 0.00, 1.57, 1.64, 1.70
235, 7604.35, -5514.60, 2194.86, -3648.76, 0.00, 0.00, 0.00, 0.00, 1.57, 1.64, 1.70
236, 7661.26, -5620.71, 2165.74, -3591.54, 0.00, 0.00, 0.00, 0.00, 1.57, 1.64, 1.70
237, 7684.07, -5636.43, 2252.62, -3697.58, 0.00, 0.00, 0.00, 0.00, 1.57, 1.64, 1.70
238, 7653.46, -5559.46, 2393.08, -3886.33, 0.00, 0.00, 0.00, 0.00, 1.57, 1.64, 1.70
239, 7601.22, -5504.11, 2230.91, -3683.47, 0.00, 0.00, 0.00, 0.00, 1.57, 1.64, 1.70
240, 7651.04, -5592.58, 2174.29, -3609.21, 0.00, 0.00, 0.00, 0.00, 1.57, 1.64, 1.70
241, 7689.93, -5635.74, 2199.64, -3637.44, 0.00, 0.00, 0.00, 0.00, 1.57, 1.64, 1.70
242, 7663.97, -5578.07, 2377.92, -3874.36, 0.00, 0.00, 0.00, 0.00, 1.57, 1.64, 1.70
243, 7597.19, -5488.63, 2259.71, -3729.19, 0.00, 0.00, 0.00, 0.00, 1.57, 1.64, 1.70
244, 7622.96, -5567.81, 2173.97, -3616.89, 0.00, 0.00, 0.00, 0.00, 1.57, 1.64, 1.70
245, 7670.48, -5633.86, 2169.17, -3598.33, 0.00, 0.00, 0.00, 0.00, 1.57, 1.64, 1.70
246, 7676.29, -5607.44, 2349.64, -3824.23, 0.00, 0.00, 0.00, 0.00, 1.57, 1.64, 1.70
247, 7615.81, -5511.52, 2320.93, -3797.56, 0.00, 0.00, 0.00, 0.00, 1.57, 1.64, 1.70
248, 7618.09, -5543.97, 2193.75, -3640.70, 0.00, 0.00, 0.00, 0.00, 1.57, 1.64, 1.70
249, 7672.10, -5628.97, 2158.48, -3589.38, 0.00, 0.00, 0.00, 0.00, 1.57, 1.64, 1.70
250, 7677.80, -5627.82, 2285.01, -3756.03, 0.00, 0.00, 0.00, 0.00, 1.57, 1.64, 1.70
251, 7627.44, -5544.82, 2364.77, -3857.75, 0.00, 0.00, 0.00, 0.00, 1.57, 1.64, 1.70
252, 7597.35, -5513.23, 2211.96, -3656.63, 0.00, 0.00, 0.00, 0.00, 1.57, 1.64, 1.70
253, 7648.83, -5594.85, 2158.13, -3588.88, 0.00, 0.00, 0.00, 0.00, 1.57, 1.64, 1.70
254, 7679.74, -5623.79, 2229.82, -3676.64, 0.00, 0.00, 0.00, 0.00, 1.57, 1.64, 1.70
255, 7652.49, -5542.13, 2373.69, -3871.79, 0.00, 0.00, 0.00, 0.00, 1.57, 1.64, 1.70
0, 7597.17, -5482.94, 2231.81, -3687.19, 0.00, 0.00, 0.00, 0.00, 1.57, 1.64, 1.70
1, 7629.43, -5576.08, 2164.68, -3597.90, 0.00, 0.00, 0.00, 0.00, 1.57, 1.64, 1.70
2, 7675.06, -5638.10, 2190.51, -3623.01, 0.00, 0.00, 0.00, 0.00, 1.57, 1.64, 1.70
3, 7674.15, -5597.63, 2386.27, -3876.30, 0.00, 0.00, 0.00, 0.00, 1.57, 1.64, 1.70
4, 7609.04, -5509.81, 2287.94, -3752.57, 0.00, 0.00, 0.00, 0.00, 1.57, 1.64, 1.70
5, 7622.92, -5560.03, 2181.77, -3617.35, 0.00, 0.00, 0.00, 0.00, 1.57, 1.64, 1.70
6, 7676.28, -5635.81, 2170.01, -3596.15, 0.00, 0.00, 0.00, 0.00, 1.57, 1.64, 1.70
7, 7681.08, -5622.45, 2341.20, -3817.93, 0.00, 0.00, 0.00, 0.00, 1.57, 1.64, 1.70
8, 7619.44, -5514.31, 2331.44, -3809.55, 0.00, 0.00, 0.00, 0.00, 1.57, 1.64, 1.70
9, 7603.36, -5520.50, 2184.10, -3633.84, 0.00, 0.00, 0.00, 0.00, 1.57, 1.64, 1.70
10, 7658.90, -5615.51, 2158.04, -3590.40, 0.00, 0.00, 0.00, 0.00, 1.57, 1.64, 1.70
11, 7691.04, -5630.21, 2280.31, -3740.09, 0.00, 0.00, 0.00, 0.00, 1.57, 1.64, 1.70
12, 7633.88, -5527.71, 2368.49, -3856.24, 0.00, 0.00, 0.00, 0.00, 1.57, 1.64, 1.70
13, 7598.91, -5497.64, 2208.18, -3662.20, 0.00, 0.00, 0.00, 0.00, 1.57, 1.64, 1.70
14, 7657.53, -5596.85, 2168.37, -3594.22, 0.00, 0.00, 0.00, 0.00, 1.57, 1.64, 1.70
15, 7675.42, -5629.67, 2217.23, -3658.40, 0.00, 0.00, 0.00, 0.00, 1.57, 1.64, 1.70
16, 7654.42, -5568.80, 2387.56, -3876.99, 0.00, 0.00, 0.00, 0.00, 1.57, 1.64, 1.70
17, 7592.49, -5494.30, 2247.10, -3703.92, 0.00, 0.00, 0.00, 0.00, 1.57, 1.64, 1.70
18, 7636.55, -5571.12, 2176.89, -3612.57, 0.00, 0.00, 0.00, 0.00, 1.57, 1.64, 1.70
19, 7681.41, -5627.60, 2187.77, -3618.14, 0.00, 0.00, 0.00, 0.00, 1.57, 1.64, 1.70
20, 7674.08, -5588.68, 2364.40, -3850.02, 0.00, 0.00, 0.00, 0.00, 1.57, 1.64, 1.70
21, 7605.71, -5493.87, 2283.30, -3754.72, 0.00, 0.00, 0.00, 0.00, 1.57, 1.64, 1.70
22, 7612.98, -5536.87, 2171.88, -3611.69, 0.00, 0.00, 0.00, 0.00, 1.57, 1.64, 1.70
23, 7668.92, -5618.84, 2152.85, -3590.46, 0.00, 0.00, 0.00, 0.00, 1.57, 1.64, 1.70
24, 7682.70, -5606.91, 2314.21, -3787.40, 0.00, 0.00, 0.00, 0.00, 1.57, 1.64, 1.70
25, 7628.93, -5511.48, 2347.79, -3827.65, 0.00, 0.00, 0.00, 0.00, 1.57, 1.64, 1.70
26, 7597.87, -5508.96, 2189.34, -3628.45, 0.00, 0.00, 0.00, 0.00, 1.57, 1.64, 1.70
27, 7662.93, -5602.01, 2155.67, -3573.71, 0.00, 0.00, 0.00, 0.00, 1.57, 1.64, 1.70
28, 7670.87, -5615.12, 2248.44, -3703.56, 0.00, 0.00, 0.00, 0.00, 1.57, 1.64, 1.70
29, 7628.20, -5530.75, 2372.75, -3869.21, 0.00, 0.00, 0.00, 0.00, 1.57, 1.64, 1.70
30, 7585.84, -5487.98, 2208.57, -3660.95, 0.00, 0.00, 0.00, 0.00, 1.57, 1.64, 1.70
31, 7642.44, -5584.79, 2166.61, -3598.84, 0.00, 0.00, 0.00, 0.00, 1.57, 1.64, 1.70
32, 7681.40, -5629.89, 2205.32, -3647.94, 0.00, 0.00, 0.00, 0.00, 1.57, 1.64, 1.70
33, 7659.08, -5567.29, 2381.48, -3876.95, 0.00, 0.00, 0.00, 0.00, 1.57, 1.64, 1.70
34, 7594.24, -5488.84, 2257.89, -3718.59, 0.00, 0.00, 0.00, 0.00, 1.57, 1.64, 1.70
35, 7629.17, -5564.73, 2169.59, -3612.85, 0.00, 0.00, 0.00, 0.00, 1.57, 1.64, 1.70
36, 7669.11, -5617.13, 2161.66, -3590.29, 0.00, 0.00, 0.00, 0.00, 1.57, 1.64, 1.70
37, 7669.52, -5590.60, 2350.75, -3837.04, 0.00, 0.00, 0.00, 0.00, 1.57, 1.64, 1.70
38, 7605.70, -5500.37, 2305.00, -3785.09, 0.00, 0.00, 0.00, 0.00, 1.57, 1.64, 1.70
39, 7607.52, -5527.69, 2176.79, -3625.38, 0.00, 0.00, 0.00, 0.00, 1.57, 1.64, 1.70
40, 7661.07, -5612.33, 2146.52, -3571.87, 0.00, 0.00, 0.00, 0.00, 1.57, 1.64, 1.70
41, 7680.74, -5613.51, 2297.71, -3764.05, 0.00, 0.00, 0.00, 0.00, 1.57, 1.64, 1.70
42, 7619.89, -5505.37, 2342.75, -3832.58, 0.00, 0.00, 0.00, 0.00, 1.57, 1.64, 1.70
43, 7591.40, -5492.60, 2189.72, -3641.27, 0.00, 0.00, 0.00, 0.00, 1.57, 1.64, 1.70
44, 7648.19, -5592.68, 2150.51, -3574.86, 0.00, 0.00, 0.00, 0.00, 1.57, 1.64, 1.70
45, 7674.46, -5615.04, 2236.49, -3687.17, 0.00, 0.00, 0.00, 0.00, 1.57, 1.64, 1.70
46, 7633.79, -5542.87, 2370.16, -3867.74, 0.00, 0.00, 0.00, 0.00, 1.57, 1.64, 1.70
47, 7583.94, -5483.87, 2217.53, -3670.21, 0.00, 0.00, 0.00, 0.00, 1.57, 1.64, 1.70
48, 7632.30, -5574.22, 2160.10, -3603.88, 0.00, 0.00, 0.00, 0.00, 1.57, 1.64, 1.70
49, 7669.11, -5613.36, 2187.48, -3626.26, 0.00, 0.00, 0.00, 0.00, 1.57, 1.64, 1.70
50, 7658.28, -5561.05, 2372.88, -3861.67, 0.00, 0.00, 0.00, 0.00, 1.57, 1.64, 1.70
51, 7596.25, -5477.36, 2264.60, -3727.71, 0.00, 0.00, 0.00, 0.00, 1.57, 1.64, 1.70
52, 7623.07, -5544.21, 2169.44, -3605.09, 0.00, 0.00, 0.00, 0.00, 1.57, 1.64, 1.70
53, 7674.84, -5614.97, 2164.81, -3593.64, 0.00, 0.00, 0.00, 0.00, 1.57, 1.64, 1.70
54, 7679.86, -5593.79, 2340.73, -3828.75, 0.00, 0.00, 0.00, 0.00, 1.57, 1.64, 1.70
55, 7601.31, -5488.42, 2313.37, -3792.14, 0.00, 0.00, 0.00, 0.00, 1.57, 1.64, 1.70
56, 7592.42, -5509.15, 2167.15, -3616.41, 0.00, 0.00, 0.00, 0.00, 1.57, 1.64, 1.70
57, 7651.63, -5596.58, 2143.66, -3571.03, 0.00, 0.00, 0.00, 0.00, 1.57, 1.64, 1.70
58, 7675.58, -5606.66, 2277.00, -3743.02, 0.00, 0.00, 0.00, 0.00, 1.57, 1.64, 1.70
59, 7623.80, -5511.27, 2356.92, -3852.34, 0.00, 0.00, 0.00, 0.00, 1.57, 1.64, 1.70
60, 7600.67, -5502.90, 2207.27, -3655.07, 0.00, 0.00, 0.00, 0.00, 1.57, 1.64, 1.70
61, 7641.95, -5593.93, 2155.79, -3586.59, 0.00, 0.00, 0.00, 0.00, 1.57, 1.64, 1.70
62, 7667.01, -5604.99, 2217.04, -3659.75, 0.00, 0.00, 0.00, 0.00, 1.57, 1.64, 1.70
63, 7637.07, -5536.09, 2369.54, -3869.45, 0.00, 0.00, 0.00, 0.00, 1.57, 1.64, 1.70
64, 7582.73, -5474.73, 2231.29, -3684.55, 0.00, 0.00, 0.00, 0.00, 1.57, 1.64, 1.70
65, 7638.79, -5567.52, 2169.43, -3605.68, 0.00, 0.00, 0.00, 0.00, 1.57, 1.64, 1.70
66, 7674.19, -5614.12, 2179.34, -3613.67, 0.00, 0.00, 0.00, 0.00, 1.57, 1.64, 1.70
67, 7657.65, -5563.32, 2361.29, -3853.24, 0.00, 0.00, 0.00, 0.00, 1.57, 1.64, 1.70
68, 7598.57, -5482.42, 2268.15, -3740.54, 0.00, 0.00, 0.00, 0.00, 1.57, 1.64, 1.70
69, 7613.90, -5522.82, 2162.88, -3602.28, 0.00, 0.00, 0.00, 0.00, 1.57, 1.64, 1.70
70, 7668.51, -5608.04, 2152.22, -3582.28, 0.00, 0.00, 0.00, 0.00, 1.57, 1.64, 1.70
71, 7673.13, -5591.85, 2318.58, -3801.25, 0.00, 0.00, 0.00, 0.00, 1.57, 1.64, 1.70
72, 7611.33, -5501.99, 2332.52, -3811.52, 0.00, 0.00, 0.00, 0.00, 1.57, 1.64, 1.70
73, 7603.86, -5512.05, 2186.70, -3629.70, 0.00, 0.00, 0.00, 0.00, 1.57, 1.64, 1.70
74, 7652.45, -5586.91, 2143.89, -3572.80, 0.00, 0.00, 0.00, 0.00, 1.57, 1.64, 1.70
75, 7670.81, -5597.45, 2254.78, -3715.01, 0.00, 0.00, 0.00, 0.00, 1.57, 1.64, 1.70
76, 7625.26, -5511.11, 2361.64, -3857.70, 0.00, 0.00, 0.00, 0.00, 1.57, 1.64, 1.70
77, 7587.55, -5476.44, 2203.89, -3656.83, 0.00, 0.00, 0.00, 0.00, 1.57, 1.64, 1.70
78, 7635.21, -5568.42, 2149.42, -3580.76, 0.00, 0.00, 0.00, 0.00, 1.57, 1.64, 1.70
79, 7669.92, -5609.43, 2199.41, -3642.24, 0.00, 0.00, 0.00, 0.00, 1.57, 1.64, 1.70
80, 7643.66, -5539.66, 2369.50, -3870.07, 0.00, 0.00, 0.00, 0.00, 1.57, 1.64, 1.70
81, 7587.34, -5469.28, 2237.59, -3698.16, 0.00, 0.00, 0.00, 0.00, 1.57, 1.64, 1.70
82, 7623.91, -5554.26, 2157.50, -3599.17, 0.00, 0.00, 0.00, 0.00, 1.57, 1.64, 1.70
83, 7670.87, -5609.35, 2169.76, -3600.30, 0.00, 0.00, 0.00, 0.00, 1.57, 1.64, 1.70
84, 7665.68, -5566.29, 2354.01, -3838.09, 0.00, 0.00, 0.00, 0.00, 1.57, 1.64, 1.70
85, 7595.41, -5475.00, 2289.03, -3760.94, 0.00, 0.00, 0.00, 0.00, 1.57, 1.64, 1.70
86, 7610.24, -5524.22, 2169.86, -3606.81, 0.00, 0.00, 0.00, 0.00, 1.57, 1.64, 1.70
87, 7658.26, -5605.57, 2150.77, -3583.11, 0.00, 0.00, 0.00, 0.00, 1.57, 1.64, 1.70
88, 7672.71, -5599.72, 2306.48, -3785.69, 0.00, 0.00, 0.00, 0.00, 1.57, 1.64, 1.70
89, 7620.19, -5498.05, 2335.70, -3831.13, 0.00, 0.00, 0.00, 0.00, 1.57, 1.64, 1.70
90, 7588.40, -5498.13, 2188.14, -3633.32, 0.00, 0.00, 0.00, 0.00, 1.57, 1.64, 1.70
91, 7646.52, -5591.13, 2143.74, -3575.59, 0.00, 0.00, 0.00, 0.00, 1.57, 1.64, 1.70
92, 7670.65, -5613.06, 2242.13, -3701.26, 0.00, 0.00, 0.00, 0.00, 1.57, 1.64, 1.70
93, 7635.58, -5537.99, 2373.97, -3866.66, 0.00, 0.00, 0.00, 0.00, 1.57, 1.64, 1.70
94, 7587.44, -5491.44, 2215.34, -3674.07, 0.00, 0.00, 0.00, 0.00, 1.57, 1.64, 1.70
95, 7642.23, -5578.94, 2156.61, -3597.01, 0.00, 0.00, 0.00, 0.00, 1.57, 1.64, 1.70
96, 7669.88, -5608.22, 2197.46, -3629.87, 0.00, 0.00, 0.00, 0.00, 1.57, 1.64, 1.70
97, 7654.23, -5559.70, 2371.14, -3868.80, 0.00, 0.00, 0.00, 0.00, 1.57, 1.64, 1.70
98, 7582.06, -5472.98, 2244.38, -3707.12, 0.00, 0.00, 0.00, 0.00, 1.57, 1.64, 1.70
99, 7614.85, -5546.47, 2158.37, -3607.58, 0.00, 0.00, 0.00, 0.00, 1.57, 1.64, 1.70
100, 7661.65, -5612.52, 2155.84, -3588.51, 0.00, 0.00, 0.00, 0.00, 1.57, 1.64, 1.70
101, 7673.07, -5580.77, 2344.45, -3835.13, 0.00, 0.00, 0.00, 0.00, 1.57, 1.64, 1.70
102, 7601.29, -5479.48, 2296.76, -3769.49, 0.00, 0.00, 0.00, 0.00, 1.57, 1.64, 1.70
103, 7596.18, -5513.87, 2171.46, -3608.33, 0.00, 0.00, 0.00, 0.00, 1.57, 1.64, 1.70
104, 7655.58, -5605.49, 2149.88, -3576.48, 0.00, 0.00, 0.00, 0.00, 1.57, 1.64, 1.70
105, 7670.74, -5595.28, 2290.26, -3758.32, 0.00, 0.00, 0.00, 0.00, 1.57, 1.64, 1.70
106, 7612.42, -5493.58, 2338.81, -3830.36, 0.00, 0.00, 0.00, 0.00, 1.57, 1.64, 1.70
107, 7585.33, -5480.99, 2188.36, -3638.27, 0.00, 0.00, 0.00, 0.00, 1.57, 1.64, 1.70
108, 7637.30, -5573.93, 2137.14, -3570.02, 0.00, 0.00, 0.00, 0.00, 1.57, 1.64, 1.70
109, 7664.22, -5601.63, 2224.43, -3674.47, 0.00, 0.00, 0.00, 0.00, 1.57, 1.64, 1.70
110, 7634.46, -5526.89, 2373.82, -3871.54, 0.00, 0.00, 0.00, 0.00, 1.57, 1.64, 1.70
111, 7579.78, -5469.27, 2213.79, -3671.33, 0.00, 0.00, 0.00, 0.00, 1.57, 1.64, 1.70
112, 7634.75, -5564.32, 2162.25, -3597.98, 0.00, 0.00, 0.00, 0.00, 1.57, 1.64, 1.70
113, 7669.73, -5613.89, 2184.58, -3623.97, 0.00, 0.00, 0.00, 0.00, 1.57, 1.64, 1.70
114, 7660.88, -5566.67, 2372.80, -3866.89, 0.00, 0.00, 0.00, 0.00, 1.57, 1.64, 1.70
115, 7595.78, -5480.80, 2262.99, -3729.09, 0.00, 0.00, 0.00, 0.00, 1.57, 1.64, 1.70
116, 7615.21, -5532.39, 2157.34, -3602.23, 0.00, 0.00, 0.00, 0.00, 1.57, 1.64, 1.70
117, 7665.71, -5602.33, 2152.35, -3580.14, 0.00, 0.00, 0.00, 0.00, 1.57, 1.64, 1.70
118, 7668.91, -5585.99, 2329.13, -3813.24, 0.00, 0.00, 0.00, 0.00, 1.57, 1.64, 1.70
119, 7602.46, -5490.17, 2310.76, -3793.24, 0.00, 0.00, 0.00, 0.00, 1.57, 1.64, 1.70
120, 7606.56, -5509.95, 2179.45, -3629.46, 0.00, 0.00, 0.00, 0.00, 1.57, 1.64, 1.70
121, 7648.69, -5592.78, 2138.94, -3568.55, 0.00, 0.00, 0.00, 0.00, 1.57, 1.64, 1.70
122, 7663.64, -5600.66, 2263.38, -3730.13, 0.00, 0.00, 0.00, 0.00, 1.57, 1.64, 1.70
123, 7623.76, -5513.62, 2357.89, -3849.24, 0.00, 0.00, 0.00, 0.00, 1.57, 1.64, 1.70
124, 7586.28, -5483.03, 2192.41, -3646.21, 0.00, 0.00, 0.00, 0.00, 1.57, 1.64, 1.70
125, 7640.88, -5579.53, 2147.96, -3576.95, 0.00, 0.00, 0.00, 0.00, 1.57, 1.64, 1.70
126, 7672.61, -5609.79, 2215.12, -3661.16, 0.00, 0.00, 0.00, 0.00, 1.57, 1.64, 1.70
127, 7653.36, -5545.46, 2379.05, -3875.68, 0.00, 0.00, 0.00, 0.00, 1.57, 1.64, 1.70
128, 7593.83, -5477.97, 2237.78, -3691.31, 0.00, 0.00, 0.00, 0.00, 1.57, 1.64, 1.70
129, 7629.23, -5556.65, 2151.42, -3595.12, 0.00, 0.00, 0.00, 0.00, 1.57, 1.64, 1.70
130, 7678.61, -5611.77, 2179.99, -3610.33, 0.00, 0.00, 0.00, 0.00, 1.57, 1.64, 1.70
131, 7667.79, -5571.82, 2364.71, -3857.96, 0.00, 0.00, 0.00, 0.00, 1.57, 1.64, 1.70
132, 7596.26, -5473.37, 2277.31, -3744.83, 0.00, 0.00, 0.00, 0.00, 1.57, 1.64, 1.70
133, 7617.39, -5528.79, 2162.15, -3615.48, 0.00, 0.00, 0.00, 0.00, 1.57, 1.64, 1.70
134, 7663.42, -5607.97, 2146.05, -3582.98, 0.00, 0.00, 0.00, 0.00, 1.57, 1.64, 1.70
135, 7667.07, -5596.74, 2314.06, -3795.03, 0.00, 0.00, 0.00, 0.00, 1.57, 1.64, 1.70
136, 7604.55, -5488.29, 2316.98, -3807.12, 0.00, 0.00, 0.00, 0.00, 1.57, 1.64, 1.70
137, 7593.34, -5506.20, 2178.19, -3628.38, 0.00, 0.00, 0.00, 0.00, 1.57, 1.64, 1.70
138, 7649.20, -5587.68, 2144.32, -3579.91, 0.00, 0.00, 0.00, 0.00, 1.57, 1.64, 1.70
139, 7666.65, -5599.31, 2255.13, -3714.35, 0.00, 0.00, 0.00, 0.00, 1.57, 1.64, 1.70
140, 7620.80, -5504.29, 2356.64, -3845.29, 0.00, 0.00, 0.00, 0.00, 1.57, 1.64, 1.70
141, 7581.02, -5470.15, 2196.53, -3654.13, 0.00, 0.00, 0.00, 0.00, 1.57, 1.64, 1.70
142, 7633.21, -5562.67, 2147.57, -3588.36, 0.00, 0.00, 0.00, 0.00, 1.57, 1.64, 1.70
143, 7663.68, -5595.50, 2193.21, -3636.57, 0.00, 0.00, 0.00, 0.00, 1.57, 1.64, 1.70
144, 7641.42, -5529.28, 2357.56, -3862.53, 0.00, 0.00, 0.00, 0.00, 1.57, 1.64, 1.70
145, 7582.86, -5462.88, 2230.26, -3699.94, 0.00, 0.00, 0.00, 0.00, 1.57, 1.64, 1.70
146, 7613.03, -5542.42, 2154.57, -3595.51, 0.00, 0.00, 0.00, 0.00, 1.57, 1.64, 1.70
147, 7657.18, -5591.25, 2154.44, -3587.04, 0.00, 0.00, 0.00, 0.00, 1.57, 1.64, 1.70
148, 7657.99, -5565.13, 2349.52, -3840.42, 0.00, 0.00, 0.00, 0.00, 1.57, 1.64, 1.70
149, 7589.60, -5466.54, 2274.40, -3757.71, 0.00, 0.00, 0.00, 0.00, 1.57, 1.64, 1.70
150, 7601.56, -5508.52, 2168.28, -3610.85, 0.00, 0.00, 0.00, 0.00, 1.57, 1.64, 1.70
151, 7656.10, -5592.48, 2141.95, -3570.00, 0.00, 0.00, 0.00, 0.00, 1.57, 1.64, 1.70
152, 7660.33, -5575.97, 2283.80, -3760.73, 0.00, 0.00, 0.00, 0.00, 1.57, 1.64, 1.70
153, 7605.03, -5478.87, 2325.98, -3817.08, 0.00, 0.00, 0.00, 0.00, 1.57, 1.64, 1.70
154, 7580.47, -5477.97, 2183.72, -3627.12, 0.00, 0.00, 0.00, 0.00, 1.57, 1.64, 1.70
155, 7631.59, -5571.10, 2131.74, -3564.31, 0.00, 0.00, 0.00, 0.00, 1.57, 1.64, 1.70
156, 7650.70, -5582.81, 2226.88, -3684.23, 0.00, 0.00, 0.00, 0.00, 1.57, 1.64, 1.70
157, 7615.16, -5500.36, 2348.71, -3847.57, 0.00, 0.00, 0.00, 0.00, 1.57, 1.64, 1.70
158, 7566.76, -5445.13, 2190.78, -3654.09, 0.00, 0.00, 0.00, 0.00, 1.57, 1.64, 1.70
159, 7624.00, -5548.43, 2145.67, -3579.22, 0.00, 0.00, 0.00, 0.00, 1.57, 1.64, 1.70
160, 7656.30, -5595.01, 2178.84, -3612.94, 0.00, 0.00, 0.00, 0.00, 1.57, 1.64, 1.70
161, 7647.83, -5544.87, 2362.20, -3863.19, 0.00, 0.00, 0.00, 0.00, 1.57, 1.64, 1.70
162, 7580.30, -5439.22, 2233.03, -3702.40, 0.00, 0.00, 0.00, 0.00, 1.57, 1.64, 1.70
163, 7610.02, -5515.31, 2149.01, -3595.40, 0.00, 0.00, 0.00, 0.00, 1.57, 1.64, 1.70
164, 7651.63, -5585.59, 2145.43, -3575.91, 0.00, 0.00, 0.00, 0.00, 1.57, 1.64, 1.70
165, 7655.43, -5564.86, 2327.38, -3820.45, 0.00, 0.00, 0.00, 0.00, 1.57, 1.64, 1.70
166, 7593.83, -5464.38, 2289.86, -3772.33, 0.00, 0.00, 0.00, 0.00, 1.57, 1.64, 1.70
167, 7599.63, -5490.72, 2161.40, -3607.78, 0.00, 0.00, 0.00, 0.00, 1.57, 1.64, 1.70
168, 7642.94, -5571.28, 2125.81, -3562.88, 0.00, 0.00, 0.00, 0.00, 1.57, 1.64, 1.70
169, 7661.69, -5571.97, 2271.99, -3737.19, 0.00, 0.00, 0.00, 0.00, 1.57, 1.64, 1.70
170, 7613.92, -5481.92, 2339.94, -3835.54, 0.00, 0.00, 0.00, 0.00, 1.57, 1.64, 1.70
171, 7578.07, -5464.29, 2172.48, -3632.49, 0.00, 0.00, 0.00, 0.00, 1.57, 1.64, 1.70
172, 7631.37, -5565.35, 2132.90, -3564.06, 0.00, 0.00, 0.00, 0.00, 1.57, 1.64, 1.70
173, 7659.07, -5587.34, 2203.40, -3659.46, 0.00, 0.00, 0.00, 0.00, 1.57, 1.64, 1.70
174, 7626.34, -5507.44, 2355.73, -3857.88, 0.00, 0.00, 0.00, 0.00, 1.57, 1.64, 1.70
175, 7584.34, -5449.60, 2206.75, -3669.91, 0.00, 0.00, 0.00, 0.00, 1.57, 1.64, 1.70
176, 7617.99, -5535.00, 2138.87, -3577.94, 0.00, 0.00, 0.00, 0.00, 1.57, 1.64, 1.70
177, 7654.62, -5586.65, 2166.11, -3609.02, 0.00, 0.00, 0.00, 0.00, 1.57, 1.64, 1.70
178, 7647.16, -5537.76, 2349.92, -3849.83, 0.00, 0.00, 0.00, 0.00, 1.57, 1.64, 1.70
179, 7584.75, -5455.71, 2251.09, -3715.57, 0.00, 0.00, 0.00, 0.00, 1.57, 1.64, 1.70
180, 7606.67, -5521.22, 2155.96, -3592.80, 0.00, 0.00, 0.00, 0.00, 1.57, 1.64, 1.70
181, 7660.67, -5587.30, 2148.83, -3579.80, 0.00, 0.00, 0.00, 0.00, 1.57, 1.64, 1.70
182, 7663.53, -5567.17, 2317.32, -3803.03, 0.00, 0.00, 0.00, 0.00, 1.57, 1.64, 1.70
183, 7598.87, -5469.55, 2300.74, -3786.00, 0.00, 0.00, 0.00, 0.00, 1.57, 1.64, 1.70
184, 7596.83, -5491.49, 2170.81, -3614.17, 0.00, 0.00, 0.00, 0.00, 1.57, 1.64, 1.70
185, 7645.15, -5574.12, 2128.33, -3559.31, 0.00, 0.00, 0.00, 0.00, 1.57, 1.64, 1.70
186, 7679.37, -5585.19, 2261.32, -3724.97, 0.00, 0.00, 0.00, 0.00, 1.57, 1.64, 1.70
187, 7623.81, -5494.04, 2345.81, -3844.33, 0.00, 0.00, 0.00, 0.00, 1.57, 1.64, 1.70
188, 7580.75, -5457.77, 2179.46, -3640.52, 0.00, 0.00, 0.00, 0.00, 1.57, 1.64, 1.70
189, 7643.38, -5555.17, 2134.76, -3585.16, 0.00, 0.00, 0.00, 0.00, 1.57, 1.64, 1.70
190, 7676.44, -5589.68, 2199.52, -3649.23, 0.00, 0.00, 0.00, 0.00, 1.57, 1.64, 1.70
191, 7635.56, -5509.80, 2354.91, -3849.48, 0.00, 0.00, 0.00, 0.00, 1.57, 1.64, 1.70
192, 7577.72, -5447.96, 2211.88, -3675.95, 0.00, 0.00, 0.00, 0.00, 1.57, 1.64, 1.70
193, 7617.83, -5538.12, 2146.33, -3589.24, 0.00, 0.00, 0.00, 0.00, 1.57, 1.64, 1.70
194, 7663.80, -5578.71, 2158.24, -3590.44, 0.00, 0.00, 0.00, 0.00, 1.57, 1.64, 1.70
195, 7651.35, -5537.94, 2343.96, -3838.46, 0.00, 0.00, 0.00, 0.00, 1.57, 1.64, 1.70
196, 7581.22, -5458.97, 2255.92, -3730.65, 0.00, 0.00, 0.00, 0.00, 1.57, 1.64, 1.70
197, 7606.51, -5510.36, 2154.52, -3605.29, 0.00, 0.00, 0.00, 0.00, 1.57, 1.64, 1.70
198, 7653.12, -5573.22, 2132.11, -3567.11, 0.00, 0.00, 0.00, 0.00, 1.57, 1.64, 1.70
199, 7667.95, -5563.49, 2306.42, -3782.41, 0.00, 0.00, 0.00, 0.00, 1.57, 1.64, 1.70
200, 7605.30, -5454.52, 2303.04, -3791.30, 0.00, 0.00, 0.00, 0.00, 1.57, 1.64, 1.70
201, 7587.24, -5461.90, 2163.03, -3613.62, 0.00, 0.00, 0.00, 0.00, 1.57, 1.64, 1.70
202, 7636.26, -5550.78, 2118.63, -3553.62, 0.00, 0.00, 0.00, 0.00, 1.57, 1.64, 1.70
203, 7657.74, -5561.72, 2234.66, -3697.84, 0.00, 0.00, 0.00, 0.00, 1.57, 1.64, 1.70
204, 7623.38, -5482.06, 2352.31, -3854.37, 0.00, 0.00, 0.00, 0.00, 1.57, 1.64, 1.70
205, 7579.47, -5442.60, 2189.90, -3641.12, 0.00, 0.00, 0.00, 0.00, 1.57, 1.64, 1.70
206, 7628.17, -5538.19, 2136.96, -3579.54, 0.00, 0.00, 0.00, 0.00, 1.57, 1.64, 1.70
207, 7660.69, -5578.17, 2184.09, -3631.22, 0.00, 0.00, 0.00, 0.00, 1.57, 1.64, 1.70
208, 7637.66, -5518.14, 2348.99, -3850.13, 0.00, 0.00, 0.00, 0.00, 1.57, 1.64, 1.70
209, 7577.17, -5442.48, 2217.87, -3687.01, 0.00, 0.00, 0.00, 0.00, 1.57, 1.64, 1.70
210, 7608.41, -5513.08, 2133.51, -3571.98, 0.00, 0.00, 0.00, 0.00, 1.57, 1.64, 1.70
211, 7647.79, -5573.15, 2132.11, -3576.95, 0.00, 0.00, 0.00, 0.00, 1.57, 1.64, 1.70
212, 7649.03, -5547.19, 2327.30, -3829.80, 0.00, 0.00, 0.00, 0.00, 1.57, 1.64, 1.70
213, 7586.26, -5441.58, 2267.45, -3744.11, 0.00, 0.00, 0.00, 0.00, 1.57, 1.64, 1.70
214, 7584.45, -5471.26, 2136.59, -3584.79, 0.00, 0.00, 0.00, 0.00, 1.57, 1.64, 1.70
215, 7644.77, -5553.06, 2118.01, -3554.65, 0.00, 0.00, 0.00, 0.00, 1.57, 1.64, 1.70
216, 7660.71, -5562.43, 2281.39, -3752.74, 0.00, 0.00, 0.00, 0.00, 1.57, 1.64, 1.70
217, 7594.26, -5463.02, 2322.17, -3810.32, 0.00, 0.00, 0.00, 0.00, 1.57, 1.64, 1.70
218, 7578.28, -5452.06, 2161.05, -3611.26, 0.00, 0.00, 0.00, 0.00, 1.57, 1.64, 1.70
219, 7626.77, -5539.41, 2122.82, -3560.51, 0.00, 0.00, 0.00, 0.00, 1.57, 1.64, 1.70
220, 7651.64, -5563.44, 2211.13, -3669.10, 0.00, 0.00, 0.00, 0.00, 1.57, 1.64, 1.70
221, 7619.48, -5492.97, 2348.78, -3848.35, 0.00, 0.00, 0.00, 0.00, 1.57, 1.64, 1.70
222, 7566.43, -5432.87, 2183.55, -3644.97, 0.00, 0.00, 0.00, 0.00, 1.57, 1.64, 1.70
223, 7612.01, -5522.43, 2124.54, -3572.07, 0.00, 0.00, 0.00, 0.00, 1.57, 1.64, 1.70
224, 7649.85, -5566.18, 2160.82, -3601.34, 0.00, 0.00, 0.00, 0.00, 1.57, 1.64, 1.70
225, 7641.09, -5517.61, 2341.85, -3842.53, 0.00, 0.00, 0.00, 0.00, 1.57, 1.64, 1.70
226, 7568.31, -5430.64, 2216.29, -3686.43, 0.00, 0.00, 0.00, 0.00, 1.57, 1.64, 1.70
227, 7607.37, -5504.69, 2142.11, -3586.11, 0.00, 0.00, 0.00, 0.00, 1.57, 1.64, 1.70
228, 7650.89, -5567.95, 2130.17, -3571.44, 0.00, 0.00, 0.00, 0.00, 1.57, 1.64, 1.70
229, 7649.44, -5536.14, 2300.65, -3798.98, 0.00, 0.00, 0.00, 0.00, 1.57, 1.64, 1.70
230, 7585.92, -5442.45, 2274.24, -3760.21, 0.00, 0.00, 0.00, 0.00, 1.57, 1.64, 1.70
231, 7593.45, -5471.35, 2147.04, -3598.87, 0.00, 0.00, 0.00, 0.00, 1.57, 1.64, 1.70
232, 7648.58, -5559.90, 2118.41, -3562.25, 0.00, 0.00, 0.00, 0.00, 1.57, 1.64, 1.70
233, 7673.41, -5567.41, 2267.26, -3740.54, 0.00, 0.00, 0.00, 0.00, 1.57, 1.64, 1.70
234, 7606.40, -5462.05, 2327.80, -3826.12, 0.00, 0.00, 0.00, 0.00, 1.57, 1.64, 1.70
235, 7575.59, -5447.50, 2167.52, -3626.25, 0.00, 0.00, 0.00, 0.00, 1.57, 1.64, 1.70
236, 7625.96, -5539.76, 2123.12, -3561.64, 0.00, 0.00, 0.00, 0.00, 1.57, 1.64, 1.70
237, 7658.86, -5572.30, 2209.13, -3663.79, 0.00, 0.00, 0.00, 0.00, 1.57, 1.64, 1.70
238, 7631.42, -5495.74, 2353.48, -3852.16, 0.00, 0.00, 0.00, 0.00, 1.57, 1.64, 1.70
239, 7570.31, -5427.24, 2199.69, -3658.07, 0.00, 0.00, 0.00, 0.00, 1.57, 1.64, 1.70
240, 7612.71, -5514.53, 2139.98, -3580.68, 0.00, 0.00, 0.00, 0.00, 1.57, 1.64, 1.70
241, 7654.62, -5557.71, 2152.93, -3590.80, 0.00, 0.00, 0.00, 0.00, 1.57, 1.64, 1.70
242, 7646.47, -5512.89, 2340.79, -3834.38, 0.00, 0.00, 0.00, 0.00, 1.57, 1.64, 1.70
243, 7579.46, -5425.01, 2241.72, -3714.62, 0.00, 0.00, 0.00, 0.00, 1.57, 1.64, 1.70
244, 7600.34, -5489.82, 2144.92, -3589.33, 0.00, 0.00, 0.00, 0.00, 1.57, 1.64, 1.70
245, 7655.66, -5558.43, 2136.56, -3567.08, 0.00, 0.00, 0.00, 0.00, 1.57, 1.64, 1.70
246, 7653.99, -5539.12, 2303.65, -3785.26, 0.00, 0.00, 0.00, 0.00, 1.57, 1.64, 1.70
247, 7591.98, -5435.57, 2294.29, -3769.85, 0.00, 0.00, 0.00, 0.00, 1.57, 1.64, 1.70
248, 7588.09, -5454.19, 2154.82, -3608.77, 0.00, 0.00, 0.00, 0.00, 1.57, 1.64, 1.70
249, 7643.35, -5546.86, 2124.70, -3558.19, 0.00, 0.00, 0.00, 0.00, 1.57, 1.64, 1.70
250, 7655.57, -5557.77, 2239.18, -3708.91, 0.00, 0.00, 0.00, 0.00, 1.57, 1.64, 1.70
251, 7614.33, -5464.36, 2333.65, -3832.82, 0.00, 0.00, 0.00, 0.00, 1.57, 1.64, 1.70
252, 7574.77, -5431.88, 2175.47, -3629.84, 0.00, 0.00, 0.00, 0.00, 1.57, 1.64, 1.70
253, 7621.17, -5519.66, 2124.06, -3563.13, 0.00, 0.00, 0.00, 0.00, 1.57, 1.64, 1.70
254, 7660.72, -5563.91, 2188.69, -3635.27, 0.00, 0.00, 0.00, 0.00, 1.57, 1.64, 1.70
255, 7635.19, -5488.62, 2347.55, -3845.88, 0.00, 0.00, 0.00, 0.00, 1.57, 1.64, 1.70
0, 7575.09, -5417.22, 2204.38, -3666.85, 0.00, 0.00, 0.00, 0.00, 1.57, 1.64, 1.70
1, 7618.67, -5508.31, 2143.63, -3580.53, 0.00, 0.00, 0.00, 0.00, 1.57, 1.64, 1.70
2, 7657.46, -5564.99, 2153.56, -3589.97, 0.00, 0.00, 0.00, 0.00, 1.57, 1.64, 1.70
3, 7648.80, -5521.46, 2332.93, -3830.17, 0.00, 0.00, 0.00, 0.00, 1.57, 1.64, 1.70
4, 7579.25, -5426.21, 2256.74, -3731.18, 0.00, 0.00, 0.00, 0.00, 1.57, 1.64, 1.70
5, 7600.29, -5475.77, 2139.13, -3582.99, 0.00, 0.00, 0.00, 0.00, 1.57, 1.64, 1.70
6, 7639.57, -5549.49, 2121.37, -3551.73, 0.00, 0.00, 0.00, 0.00, 1.57, 1.64, 1.70
7, 7652.72, -5541.41, 2282.92, -3760.35, 0.00, 0.00, 0.00, 0.00, 1.57, 1.64, 1.70
8, 7589.50, -5434.93, 2294.22, -3783.02, 0.00, 0.00, 0.00, 0.00, 1.57, 1.64, 1.70
9, 7576.01, -5440.41, 2147.74, -3599.14, 0.00, 0.00, 0.00, 0.00, 1.57, 1.64, 1.70
10, 7633.54, -5536.11, 2111.75, -3549.53, 0.00, 0.00, 0.00, 0.00, 1.57, 1.64, 1.70
11, 7665.33, -5558.24, 2230.53, -3693.08, 0.00, 0.00, 0.00, 0.00, 1.57, 1.64, 1.70
12, 7613.28, -5460.97, 2336.19, -3832.34, 0.00, 0.00, 0.00, 0.00, 1.57, 1.64, 1.70
13, 7572.85, -5424.26, 2182.84, -3635.25, 0.00, 0.00, 0.00, 0.00, 1.57, 1.64, 1.70
14, 7618.99, -5520.17, 2123.46, -3565.56, 0.00, 0.00, 0.00, 0.00, 1.57, 1.64, 1.70
15, 7655.87, -5555.18, 2170.67, -3617.14, 0.00, 0.00, 0.00, 0.00, 1.57, 1.64, 1.70
16, 7643.46, -5496.98, 2345.64, -3849.84, 0.00, 0.00, 0.00, 0.00, 1.57, 1.64, 1.70
17, 7578.54, -5423.70, 2218.24, -3687.18, 0.00, 0.00, 0.00, 0.00, 1.57, 1.64, 1.70
18, 7611.13, -5500.05, 2140.39, -3582.13, 0.00, 0.00, 0.00, 0.00, 1.57, 1.64, 1.70
19, 7649.38, -5552.41, 2133.84, -3571.52, 0.00, 0.00, 0.00, 0.00, 1.57, 1.64, 1.70
20, 7654.00, -5518.51, 2319.36, -3809.18, 0.00, 0.00, 0.00, 0.00, 1.57, 1.64, 1.70
21, 7583.71, -5418.67, 2261.16, -3736.74, 0.00, 0.00, 0.00, 0.00, 1.57, 1.64, 1.70
22, 7589.36, -5462.18, 2144.60, -3590.08, 0.00, 0.00, 0.00, 0.00, 1.57, 1.64, 1.70
23, 7638.79, -5543.77, 2119.85, -3547.99, 0.00, 0.00, 0.00, 0.00, 1.57, 1.64, 1.70
24, 7654.52, -5542.98, 2270.02, -3742.85, 0.00, 0.00, 0.00, 0.00, 1.57, 1.64, 1.70
25, 7605.52, -5450.09, 2320.76, -3809.50, 0.00, 0.00, 0.00, 0.00, 1.57, 1.64, 1.70
26, 7585.13, -5439.75, 2168.48, -3615.90, 0.00, 0.00, 0.00, 0.00, 1.57, 1.64, 1.70
27, 7630.27, -5539.55, 2126.63, -3565.23, 0.00, 0.00, 0.00, 0.00, 1.57, 1.64, 1.70
28, 7656.99, -5554.17, 2213.88, -3667.22, 0.00, 0.00, 0.00, 0.00, 1.57, 1.64, 1.70
29, 7615.29, -5465.07, 2340.88, -3840.60, 0.00, 0.00, 0.00, 0.00, 1.57, 1.64, 1.70
30, 7569.87, -5414.47, 2180.41, -3637.34, 0.00, 0.00, 0.00, 0.00, 1.57, 1.64, 1.70
31, 7617.36, -5516.22, 2127.20, -3569.36, 0.00, 0.00, 0.00, 0.00, 1.57, 1.64, 1.70
32, 7651.93, -5556.21, 2163.87, -3601.13, 0.00, 0.00, 0.00, 0.00, 1.57, 1.64, 1.70
33, 7638.57, -5500.22, 2347.17, -3839.74, 0.00, 0.00, 0.00, 0.00, 1.57, 1.64, 1.70
34, 7577.43, -5415.94, 2228.65, -3700.62, 0.00, 0.00, 0.00, 0.00, 1.57, 1.64, 1.70
35, 7613.96, -5481.76, 2137.03, -3575.37, 0.00, 0.00, 0.00, 0.00, 1.57, 1.64, 1.70
36, 7649.34, -5543.19, 2127.95, -3562.69, 0.00, 0.00, 0.00, 0.00, 1.57, 1.64, 1.70
37, 7654.17, -5528.92, 2306.45, -3796.68, 0.00, 0.00, 0.00, 0.00, 1.57, 1.64, 1.70
38, 7588.28, -5428.94, 2278.91, -3763.62, 0.00, 0.00, 0.00, 0.00, 1.57, 1.64, 1.70
39, 7582.03, -5447.27, 2143.93, -3588.20, 0.00, 0.00, 0.00, 0.00, 1.57, 1.64, 1.70
40, 7633.35, -5532.33, 2110.53, -3544.19, 0.00, 0.00, 0.00, 0.00, 1.57, 1.64, 1.70
41, 7652.52, -5532.52, 2242.46, -3711.61, 0.00, 0.00, 0.00, 0.00, 1.57, 1.64, 1.70
42, 7609.68, -5441.02, 2324.36, -3821.67, 0.00, 0.00, 0.00, 0.00, 1.57, 1.64, 1.70
43, 7570.57, -5429.91, 2159.99, -3614.86, 0.00, 0.00, 0.00, 0.00, 1.57, 1.64, 1.70
44, 7616.55, -5520.23, 2113.58, -3551.84, 0.00, 0.00, 0.00, 0.00, 1.57, 1.64, 1.70
45, 7652.46, -5541.84, 2183.39, -3633.11, 0.00, 0.00, 0.00, 0.00, 1.57, 1.64, 1.70
46, 7627.12, -5468.13, 2338.04, -3840.64, 0.00, 0.00, 0.00, 0.00, 1.57, 1.64, 1.70
47, 7568.76, -5402.89, 2184.98, -3654.67, 0.00, 0.00, 0.00, 0.00, 1.57, 1.64, 1.70
48, 7607.46, -5490.39, 2119.91, -3566.91, 0.00, 0.00, 0.00, 0.00, 1.57, 1.64, 1.70
49, 7646.38, -5540.44, 2142.66, -3584.52, 0.00, 0.00, 0.00, 0.00, 1.57, 1.64, 1.70
50, 7640.34, -5492.16, 2333.74, -3835.80, 0.00, 0.00, 0.00, 0.00, 1.57, 1.64, 1.70
51, 7574.36, -5405.21, 2229.82, -3706.26, 0.00, 0.00, 0.00, 0.00, 1.57, 1.64, 1.70
52, 7597.02, -5465.86, 2133.13, -3581.94, 0.00, 0.00, 0.00, 0.00, 1.57, 1.64, 1.70
53, 7646.94, -5541.24, 2126.66, -3557.49, 0.00, 0.00, 0.00, 0.00, 1.57, 1.64, 1.70
54, 7659.79, -5525.97, 2297.30, -3777.26, 0.00, 0.00, 0.00, 0.00, 1.57, 1.64, 1.70
55, 7592.17, -5431.59, 2289.43, -3775.23, 0.00, 0.00, 0.00, 0.00, 1.57, 1.64, 1.70
56, 7574.46, -5443.23, 2145.64, -3596.32, 0.00, 0.00, 0.00, 0.00, 1.57, 1.64, 1.70
57, 7631.81, -5526.39, 2111.25, -3541.88, 0.00, 0.00, 0.00, 0.00, 1.57, 1.64, 1.70
58, 7651.21, -5538.47, 2237.53, -3698.95, 0.00, 0.00, 0.00, 0.00, 1.57, 1.64, 1.70
59, 7602.32, -5447.85, 2328.67, -3824.31, 0.00, 0.00, 0.00, 0.00, 1.57, 1.64, 1.70
60, 7568.12, -5416.81, 2169.74, -3626.42, 0.00, 0.00, 0.00, 0.00, 1.57, 1.64, 1.70
61, 7629.82, -5507.97, 2117.43, -3557.14, 0.00, 0.00, 0.00, 0.00, 1.57, 1.64, 1.70
62, 7651.84, -5532.03, 2171.46, -3622.23, 0.00, 0.00, 0.00, 0.00, 1.57, 1.64, 1.70
63, 7617.46, -5469.85, 2336.71, -3840.47, 0.00, 0.00, 0.00, 0.00, 1.57, 1.64, 1.70
64, 7563.13, -5399.39, 2191.57, -3664.70, 0.00, 0.00, 0.00, 0.00, 1.57, 1.64, 1.70
65, 7608.96, -5484.93, 2124.97, -3575.93, 0.00, 0.00, 0.00, 0.00, 1.57, 1.64, 1.70
66, 7651.44, -5535.69, 2135.08, -3572.27, 0.00, 0.00, 0.00, 0.00, 1.57, 1.64, 1.70
67, 7644.46, -5499.11, 2323.48, -3820.45, 0.00, 0.00, 0.00, 0.00, 1.57, 1.64, 1.70
68, 7580.19, -5410.31, 2245.55, -3721.21, 0.00, 0.00, 0.00, 0.00, 1.57, 1.64, 1.70
69, 7589.99, -5454.58, 2127.41, -3581.01, 0.00, 0.00, 0.00, 0.00, 1.57, 1.64, 1.70
70, 7644.06, -5538.05, 2110.71, -3553.39, 0.00, 0.00, 0.00, 0.00, 1.57, 1.64, 1.70
71, 7656.11, -5528.29, 2279.24, -3755.10, 0.00, 0.00, 0.00, 0.00, 1.57, 1.64, 1.70
72, 7594.91, -5431.32, 2300.56, -3788.21, 0.00, 0.00, 0.00, 0.00, 1.57, 1.64, 1.70
73, 7572.80, -5439.85, 2154.04, -3606.08, 0.00, 0.00, 0.00, 0.00, 1.57, 1.64, 1.70
74, 7643.73, -5536.91, 2116.51, -3555.07, 0.00, 0.00, 0.00, 0.00, 1.57, 1.64, 1.70
75, 7652.98, -5536.20, 2211.54, -3669.31, 0.00, 0.00, 0.00, 0.00, 1.57, 1.64, 1.70
76, 7610.82, -5447.71, 2335.85, -3834.87, 0.00, 0.00, 0.00, 0.00, 1.57, 1.64, 1.70
77, 7565.88, -5407.31, 2179.52, -3633.69, 0.00, 0.00, 0.00, 0.00, 1.57, 1.64, 1.70
78, 7613.75, -5504.20, 2112.64, -3550.11, 0.00, 0.00, 0.00, 0.00, 1.57, 1.64, 1.70
79, 7650.01, -5543.95, 2166.42, -3607.76, 0.00, 0.00, 0.00, 0.00, 1.57, 1.64, 1.70
80, 7625.24, -5477.57, 2340.90, -3837.93, 0.00, 0.00, 0.00, 0.00, 1.57, 1.64, 1.70
81, 7571.33, -5399.86, 2214.53, -3680.03, 0.00, 0.00, 0.00, 0.00, 1.57, 1.64, 1.70
82, 7601.98, -5467.62, 2123.47, -3573.60, 0.00, 0.00, 0.00, 0.00, 1.57, 1.64, 1.70
83, 7649.30, -5541.87, 2126.80, -3562.87, 0.00, 0.00, 0.00, 0.00, 1.57, 1.64, 1.70
84, 7644.83, -5515.44, 2314.19, -3810.78, 0.00, 0.00, 0.00, 0.00, 1.57, 1.64, 1.70
85, 7571.73, -5397.08, 2254.07, -3724.72, 0.00, 0.00, 0.00, 0.00, 1.57, 1.64, 1.70
86, 7591.62, -5444.38, 2136.87, -3587.39, 0.00, 0.00, 0.00, 0.00, 1.57, 1.64, 1.70
87, 7638.45, -5522.62, 2113.60, -3544.43, 0.00, 0.00, 0.00, 0.00, 1.57, 1.64, 1.70
88, 7650.52, -5521.46, 2249.36, -3727.89, 0.00, 0.00, 0.00, 0.00, 1.57, 1.64, 1.70
89, 7602.20, -5425.63, 2304.79, -3806.56, 0.00, 0.00, 0.00, 0.00, 1.57, 1.64, 1.70
90, 7574.81, -5413.38, 2152.95, -3616.23, 0.00, 0.00, 0.00, 0.00, 1.57, 1.64, 1.70
91, 7620.33, -5501.11, 2104.32, -3540.43, 0.00, 0.00, 0.00, 0.00, 1.57, 1.64, 1.70
92, 7648.07, -5526.26, 2187.19, -3644.03, 0.00, 0.00, 0.00, 0.00, 1.57, 1.64, 1.70
93, 7608.52, -5440.94, 2324.46, -3825.48, 0.00, 0.00, 0.00, 0.00, 1.57, 1.64, 1.70
94, 7563.39, -5388.15, 2167.27, -3629.52, 0.00, 0.00, 0.00, 0.00, 1.57, 1.64, 1.70
95, 7611.30, -5480.01, 2109.91, -3548.84, 0.00, 0.00, 0.00, 0.00, 1.57, 1.64, 1.70
96, 7650.98, -5531.08, 2144.01, -3588.86, 0.00, 0.00, 0.00, 0.00, 1.57, 1.64, 1.70
97, 7631.27, -5476.03, 2330.93, -3827.12, 0.00, 0.00, 0.00, 0.00, 1.57, 1.64, 1.70
98, 7573.43, -5389.41, 2215.23, -3685.30, 0.00, 0.00, 0.00, 0.00, 1.57, 1.64, 1.70
99, 7601.64, -5457.27, 2126.97, -3577.53, 0.00, 0.00, 0.00, 0.00, 1.57, 1.64, 1.70
100, 7637.00, -5521.37, 2115.58, -3543.34, 0.00, 0.00, 0.00, 0.00, 1.57, 1.64, 1.70
101, 7647.57, -5506.94, 2295.27, -3788.92, 0.00, 0.00, 0.00, 0.00, 1.57, 1.64, 1.70
102, 7589.61, -5396.69, 2269.17, -3755.00, 0.00, 0.00, 0.00, 0.00, 1.57, 1.64, 1.70
103, 7581.30, -5418.62, 2125.75, -3575.97, 0.00, 0.00, 0.00, 0.00, 1.57, 1.64, 1.70
104, 7639.92, -5516.28, 2102.08, -3533.44, 0.00, 0.00, 0.00, 0.00, 1.57, 1.64, 1.70
105, 7647.27, -5516.23, 2233.16, -3703.80, 0.00, 0.00, 0.00, 0.00, 1.57, 1.64, 1.70
106, 7597.96, -5418.56, 2307.34, -3809.44, 0.00, 0.00, 0.00, 0.00, 1.57, 1.64, 1.70
107, 7568.43, -5402.38, 2149.95, -3610.39, 0.00, 0.00, 0.00, 0.00, 1.57, 1.64, 1.70
108, 7619.39, -5497.26, 2107.25, -3544.72, 0.00, 0.00, 0.00, 0.00, 1.57, 1.64, 1.70
109, 7646.18, -5526.03, 2177.40, -3635.22, 0.00, 0.00, 0.00, 0.00, 1.57, 1.64, 1.70
110, 7625.49, -5461.85, 2337.46, -3845.50, 0.00, 0.00, 0.00, 0.00, 1.57, 1.64, 1.70
111, 7566.55, -5385.45, 2176.17, -3646.89, 0.00, 0.00, 0.00, 0.00, 1.57, 1.64, 1.70
112, 7614.97, -5476.23, 2117.87, -3565.84, 0.00, 0.00, 0.00, 0.00, 1.57, 1.64, 1.70
113, 7649.13, -5526.80, 2132.34, -3578.90, 0.00, 0.00, 0.00, 0.00, 1.57, 1.64, 1.70
114, 7647.52, -5486.57, 2324.38, -3828.35, 0.00, 0.00, 0.00, 0.00, 1.57, 1.64, 1.70
115, 7573.58, -5388.34, 2222.43, -3697.56, 0.00, 0.00, 0.00, 0.00, 1.57, 1.64, 1.70
116, 7591.02, -5452.82, 2113.36, -3562.85, 0.00, 0.00, 0.00, 0.00, 1.57, 1.64, 1.70
117, 7644.58, -5513.55, 2103.12, -3541.54, 0.00, 0.00, 0.00, 0.00, 1.57, 1.64, 1.70
118, 7656.94, -5501.95, 2275.05, -3760.65, 0.00, 0.00, 0.00, 0.00, 1.57, 1.64, 1.70
119, 7586.48, -5400.27, 2269.53, -3773.24, 0.00, 0.00, 0.00, 0.00, 1.57, 1.64, 1.70
120, 7576.27, -5415.64, 2134.23, -3586.46, 0.00, 0.00, 0.00, 0.00, 1.57, 1.64, 1.70
121, 7636.59, -5512.77, 2107.04, -3543.50, 0.00, 0.00, 0.00, 0.00, 1.57, 1.64, 1.70
122, 7651.27, -5518.17, 2214.94, -3683.52, 0.00, 0.00, 0.00, 0.00, 1.57, 1.64, 1.70
123, 7608.53, -5424.47, 2315.23, -3819.13, 0.00, 0.00, 0.00, 0.00, 1.57, 1.64, 1.70
124, 7570.28, -5390.66, 2153.49, -3614.00, 0.00, 0.00, 0.00, 0.00, 1.57, 1.64, 1.70
125, 7618.19, -5485.97, 2105.28, -3549.65, 0.00, 0.00, 0.00, 0.00, 1.57, 1.64, 1.70
126, 7647.45, -5515.87, 2164.73, -3613.37, 0.00, 0.00, 0.00, 0.00, 1.57, 1.64, 1.70
127, 7628.49, -5458.52, 2334.18, -3834.99, 0.00, 0.00, 0.00, 0.00, 1.57, 1.64, 1.70
128, 7568.45, -5387.30, 2190.70, -3658.79, 0.00, 0.00, 0.00, 0.00, 1.57, 1.64, 1.70
129, 7605.48, -5465.87, 2118.94, -3566.08, 0.00, 0.00, 0.00, 0.00, 1.57, 1.64, 1.70
130, 7645.56, -5525.17, 2124.76, -3563.28, 0.00, 0.00, 0.00, 0.00, 1.57, 1.64, 1.70
131, 7643.17, -5485.37, 2314.86, -3810.57, 0.00, 0.00, 0.00, 0.00, 1.57, 1.64, 1.70
132, 7576.65, -5385.90, 2241.29, -3723.83, 0.00, 0.00, 0.00, 0.00, 1.57, 1.64, 1.70
133, 7588.38, -5433.61, 2120.57, -3574.32, 0.00, 0.00, 0.00, 0.00, 1.57, 1.64, 1.70
134, 7645.33, -5516.07, 2102.61, -3543.86, 0.00, 0.00, 0.00, 0.00, 1.57, 1.64, 1.70
135, 7655.50, -5511.04, 2263.70, -3747.66, 0.00, 0.00, 0.00, 0.00, 1.57, 1.64, 1.70
136, 7578.34, -5403.79, 2283.00, -3774.34, 0.00, 0.00, 0.00, 0.00, 1.57, 1.64, 1.70
137, 7569.68, -5407.27, 2134.91, -3591.09, 0.00, 0.00, 0.00, 0.00, 1.57, 1.64, 1.70
138, 7619.27, -5495.67, 2091.78, -3537.11, 0.00, 0.00, 0.00, 0.00, 1.57, 1.64, 1.70
139, 7656.52, -5524.43, 2207.47, -3669.86, 0.00, 0.00, 0.00, 0.00, 1.57, 1.64, 1.70
140, 7614.31, -5443.59, 2323.07, -3828.20, 0.00, 0.00, 0.00, 0.00, 1.57, 1.64, 1.70
141, 7568.33, -5393.59, 2170.53, -3626.70, 0.00, 0.00, 0.00, 0.00, 1.57, 1.64, 1.70
142, 7612.58, -5484.96, 2106.86, -3548.01, 0.00, 0.00, 0.00, 0.00, 1.57, 1.64, 1.70
143, 7641.16, -5519.61, 2145.13, -3593.78, 0.00, 0.00, 0.00, 0.00, 1.57, 1.64, 1.70
144, 7619.44, -5459.54, 2324.23, -3828.58, 0.00, 0.00, 0.00, 0.00, 1.57, 1.64, 1.70
145, 7556.41, -5376.12, 2193.55, -3664.74, 0.00, 0.00, 0.00, 0.00, 1.57, 1.64, 1.70
146, 7599.79, -5457.52, 2112.68, -3563.25, 0.00, 0.00, 0.00, 0.00, 1.57, 1.64, 1.70
147, 7644.71, -5525.31, 2117.67, -3558.55, 0.00, 0.00, 0.00, 0.00, 1.57, 1.64, 1.70
148, 7639.58, -5491.35, 2296.90, -3788.62, 0.00, 0.00, 0.00, 0.00, 1.57, 1.64, 1.70
149, 7573.54, -5392.34, 2248.58, -3732.25, 0.00, 0.00, 0.00, 0.00, 1.57, 1.64, 1.70
150, 7578.89, -5420.57, 2122.77, -3576.18, 0.00, 0.00, 0.00, 0.00, 1.57, 1.64, 1.70
151, 7638.97, -5514.78, 2098.88, -3536.73, 0.00, 0.00, 0.00, 0.00, 1.57, 1.64, 1.70
152, 7653.90, -5508.05, 2244.01, -3725.87, 0.00, 0.00, 0.00, 0.00, 1.57, 1.64, 1.70
153, 7591.21, -5402.15, 2294.40, -3791.58, 0.00, 0.00, 0.00, 0.00, 1.57, 1.64, 1.70
154, 7563.14, -5398.81, 2139.13, -3596.25, 0.00, 0.00, 0.00, 0.00, 1.57, 1.64, 1.70
155, 7622.71, -5498.49, 2099.15, -3546.26, 0.00, 0.00, 0.00, 0.00, 1.57, 1.64, 1.70
156, 7647.31, -5512.63, 2178.19, -3640.57, 0.00, 0.00, 0.00, 0.00, 1.57, 1.64, 1.70
157, 7611.72, -5432.60, 2319.49, -3831.14, 0.00, 0.00, 0.00, 0.00, 1.57, 1.64, 1.70
158, 7558.55, -5377.69, 2158.07, -3628.58, 0.00, 0.00, 0.00, 0.00, 1.57, 1.64, 1.70
159, 7606.45, -5465.15, 2095.66, -3542.04, 0.00, 0.00, 0.00, 0.00, 1.57, 1.64, 1.70
160, 7653.75, -5515.37, 2142.66, -3589.87, 0.00, 0.00, 0.00, 0.00, 1.57, 1.64, 1.70
161, 7633.82, -5460.47, 2319.97, -3825.63, 0.00, 0.00, 0.00, 0.00, 1.57, 1.64, 1.70
162, 7565.95, -5375.33, 2207.16, -3682.93, 0.00, 0.00, 0.00, 0.00, 1.57, 1.64, 1.70
163, 7602.03, -5445.14, 2116.95, -3561.87, 0.00, 0.00, 0.00, 0.00, 1.57, 1.64, 1.70
164, 7642.46, -5517.15, 2109.51, -3552.82, 0.00, 0.00, 0.00, 0.00, 1.57, 1.64, 1.70
165, 7645.08, -5489.19, 2278.13, -3773.16, 0.00, 0.00, 0.00, 0.00, 1.57, 1.64, 1.70
166, 7579.68, -5393.35, 2261.16, -3753.06, 0.00, 0.00, 0.00, 0.00, 1.57, 1.64, 1.70
167, 7574.16, -5409.39, 2126.13, -3580.19, 0.00, 0.00, 0.00, 0.00, 1.57, 1.64, 1.70
168, 7626.24, -5497.16, 2087.30, -3531.01, 0.00, 0.00, 0.00, 0.00, 1.57, 1.64, 1.70
169, 7644.87, -5503.26, 2222.44, -3699.99, 0.00, 0.00, 0.00, 0.00, 1.57, 1.64, 1.70
170, 7591.53, -5401.77, 2303.00, -3799.69, 0.00, 0.00, 0.00, 0.00, 1.57, 1.64, 1.70
171, 7557.25, -5380.56, 2136.93, -3599.23, 0.00, 0.00, 0.00, 0.00, 1.57, 1.64, 1.70
172, 7615.17, -5478.42, 2097.73, -3543.40, 0.00, 0.00, 0.00, 0.00, 1.57, 1.64, 1.70
173, 7645.54, -5507.79, 2169.66, -3629.72, 0.00, 0.00, 0.00, 0.00, 1.57, 1.64, 1.70
174, 7614.73, -5433.03, 2321.95, -3829.85, 0.00, 0.00, 0.00, 0.00, 1.57, 1.64, 1.70
175, 7561.56, -5370.65, 2176.53, -3639.39, 0.00, 0.00, 0.00, 0.00, 1.57, 1.64, 1.70
176, 7610.20, -5457.50, 2112.04, -3558.36, 0.00, 0.00, 0.00, 0.00, 1.57, 1.64, 1.70
177, 7644.72, -5504.92, 2116.91, -3563.04, 0.00, 0.00, 0.00, 0.00, 1.57, 1.64, 1.70
178, 7630.26, -5460.49, 2309.63, -3810.45, 0.00, 0.00, 0.00, 0.00, 1.57, 1.64, 1.70
179, 7565.27, -5361.59, 2213.27, -3689.87, 0.00, 0.00, 0.00, 0.00, 1.57, 1.64, 1.70
180, 7587.27, -5424.47, 2117.92, -3565.15, 0.00, 0.00, 0.00, 0.00, 1.57, 1.64, 1.70
181, 7643.13, -5506.17, 2106.92, -3544.31, 0.00, 0.00, 0.00, 0.00, 1.57, 1.64, 1.70
182, 7654.28, -5496.06, 2277.44, -3753.80, 0.00, 0.00, 0.00, 0.00, 1.57, 1.64, 1.70
183, 7594.46, -5395.99, 2284.51, -3774.91, 0.00, 0.00, 0.00, 0.00, 1.57, 1.64, 1.70
184, 7578.03, -5404.32, 2134.45, -3592.36, 0.00, 0.00, 0.00, 0.00, 1.57, 1.64, 1.70
185, 7629.72, -5496.49, 2099.55, -3532.65, 0.00, 0.00, 0.00, 0.00, 1.57, 1.64, 1.70
186, 7653.22, -5508.82, 2203.84, -3679.83, 0.00, 0.00, 0.00, 0.00, 1.57, 1.64, 1.70
187, 7607.37, -5415.34, 2319.86, -3828.46, 0.00, 0.00, 0.00, 0.00, 1.57, 1.64, 1.70
188, 7573.80, -5379.10, 2155.76, -3616.31, 0.00, 0.00, 0.00, 0.00, 1.57, 1.64, 1.70
189, 7623.97, -5492.08, 2101.17, -3551.88, 0.00, 0.00, 0.00, 0.00, 1.57, 1.64, 1.70
190, 7646.61, -5514.36, 2151.54, -3602.41, 0.00, 0.00, 0.00, 0.00, 1.57, 1.64, 1.70
191, 7631.24, -5441.57, 2325.65, -3830.76, 0.00, 0.00, 0.00, 0.00, 1.57, 1.64, 1.70
192, 7571.59, -5367.63, 2192.05, -3664.88, 0.00, 0.00, 0.00, 0.00, 1.57, 1.64, 1.70
193, 7613.71, -5448.06, 2107.64, -3560.11, 0.00, 0.00, 0.00, 0.00, 1.57, 1.64, 1.70
194, 7648.66, -5508.68, 2118.21, -3558.46, 0.00, 0.00, 0.00, 0.00, 1.57, 1.64, 1.70
195, 7645.70, -5477.31, 2314.09, -3811.03, 0.00, 0.00, 0.00, 0.00, 1.57, 1.64, 1.70
196, 7573.32, -5376.63, 2230.77, -3717.33, 0.00, 0.00, 0.00, 0.00, 1.57, 1.64, 1.70
197, 7590.79, -5422.63, 2112.61, -3570.31, 0.00, 0.00, 0.00, 0.00, 1.57, 1.64, 1.70
198, 7639.80, -5501.18, 2098.56, -3534.16, 0.00, 0.00, 0.00, 0.00, 1.57, 1.64, 1.70
199, 7650.93, -5494.53, 2250.28, -3738.75, 0.00, 0.00, 0.00, 0.00, 1.57, 1.64, 1.70
200, 7590.75, -5391.43, 2279.06, -3776.26, 0.00, 0.00, 0.00, 0.00, 1.57, 1.64, 1.70
201, 7580.67, -5392.84, 2132.76, -3593.56, 0.00, 0.00, 0.00, 0.00, 1.57, 1.64, 1.70
202, 7637.10, -5489.22, 2096.86, -3536.15, 0.00, 0.00, 0.00, 0.00, 1.57, 1.64, 1.70
203, 7655.47, -5508.50, 2193.68, -3654.21, 0.00, 0.00, 0.00, 0.00, 1.57, 1.64, 1.70
204, 7608.90, -5413.45, 2310.03, -3817.96, 0.00, 0.00, 0.00, 0.00, 1.57, 1.64, 1.70
205, 7564.87, -5370.93, 2155.70, -3615.61, 0.00, 0.00, 0.00, 0.00, 1.57, 1.64, 1.70
206, 7623.26, -5470.09, 2101.08, -3554.20, 0.00, 0.00, 0.00, 0.00, 1.57, 1.64, 1.70
207, 7650.56, -5504.88, 2146.48, -3596.21, 0.00, 0.00, 0.00, 0.00, 1.57, 1.64, 1.70
208, 7637.12, -5454.64, 2312.19, -3833.23, 0.00, 0.00, 0.00, 0.00, 1.57, 1.64, 1.70
209, 7560.17, -5359.47, 2184.18, -3669.71, 0.00, 0.00, 0.00, 0.00, 1.57, 1.64, 1.70
210, 7589.41, -5431.75, 2094.40, -3544.08, 0.00, 0.00, 0.00, 0.00, 1.57, 1.64, 1.70
211, 7640.63, -5495.90, 2104.49, -3539.97, 0.00, 0.00, 0.00, 0.00, 1.57, 1.64, 1.70
212, 7645.22, -5467.43, 2284.85, -3784.15, 0.00, 0.00, 0.00, 0.00, 1.57, 1.64, 1.70
213, 7583.01, -5371.83, 2239.32, -3733.96, 0.00, 0.00, 0.00, 0.00, 1.57, 1.64, 1.70
214, 7583.85, -5405.69, 2116.89, -3568.88, 0.00, 0.00, 0.00, 0.00, 1.57, 1.64, 1.70
215, 7636.63, -5494.13, 2092.35, -3531.66, 0.00, 0.00, 0.00, 0.00, 1.57, 1.64, 1.70
216, 7647.40, -5495.55, 2233.94, -3707.27, 0.00, 0.00, 0.00, 0.00, 1.57, 1.64, 1.70
217, 7599.57, -5397.50, 2299.80, -3800.41, 0.00, 0.00, 0.00, 0.00, 1.57, 1.64, 1.70
218, 7570.94, -5394.53, 2141.43, -3605.03, 0.00, 0.00, 0.00, 0.00, 1.57, 1.64, 1.70
219, 7630.24, -5485.15, 2095.02, -3534.02, 0.00, 0.00, 0.00, 0.00, 1.57, 1.64, 1.70
220, 7658.54, -5511.03, 2182.20, -3644.55, 0.00, 0.00, 0.00, 0.00, 1.57, 1.64, 1.70
221, 7618.57, -5426.81, 2317.63, -3832.87, 0.00, 0.00, 0.00, 0.00, 1.57, 1.64, 1.70
222, 7574.73, -5370.02, 2163.14, -3631.20, 0.00, 0.00, 0.00, 0.00, 1.57, 1.64, 1.70
223, 7615.63, -5467.97, 2111.97, -3559.50, 0.00, 0.00, 0.00, 0.00, 1.57, 1.64, 1.70
224, 7653.02, -5510.48, 2133.65, -3578.90, 0.00, 0.00, 0.00, 0.00, 1.57, 1.64, 1.70
225, 7633.22, -5457.71, 2312.08, -3818.94, 0.00, 0.00, 0.00, 0.00, 1.57, 1.64, 1.70
226, 7567.09, -5361.02, 2197.86, -3676.51, 0.00, 0.00, 0.00, 0.00, 1.57, 1.64, 1.70
227, 7587.81, -5425.67, 2095.81, -3555.89, 0.00, 0.00, 0.00, 0.00, 1.57, 1.64, 1.70
228, 7641.90, -5492.62, 2091.77, -3538.91, 0.00, 0.00, 0.00, 0.00, 1.57, 1.64, 1.70
229, 7649.76, -5478.47, 2271.62, -3765.14, 0.00, 0.00, 0.00, 0.00, 1.57, 1.64, 1.70
230, 7581.71, -5376.85, 2257.00, -3746.85, 0.00, 0.00, 0.00, 0.00, 1.57, 1.64, 1.70
231, 7581.84, -5404.94, 2119.16, -3583.50, 0.00, 0.00, 0.00, 0.00, 1.57, 1.64, 1.70
232, 7632.21, -5488.06, 2093.02, -3526.25, 0.00, 0.00, 0.00, 0.00, 1.57, 1.64, 1.70
233, 7652.80, -5494.06, 2217.57, -3696.61, 0.00, 0.00, 0.00, 0.00, 1.57, 1.64, 1.70
234, 7593.57, -5387.24, 2293.79, -3796.01, 0.00, 0.00, 0.00, 0.00, 1.57, 1.64, 1.70
235, 7571.11, -5377.24, 2143.95, -3603.84, 0.00, 0.00, 0.00, 0.00, 1.57, 1.64, 1.70
236, 7627.13, -5470.02, 2093.15, -3535.67, 0.00, 0.00, 0.00, 0.00, 1.57, 1.64, 1.70
237, 7645.57, -5494.92, 2156.06, -3613.06, 0.00, 0.00, 0.00, 0.00, 1.57, 1.64, 1.70
238, 7614.10, -5419.06, 2314.90, -3818.94, 0.00, 0.00, 0.00, 0.00, 1.57, 1.64, 1.70
239, 7562.02, -5354.28, 2170.39, -3633.76, 0.00, 0.00, 0.00, 0.00, 1.57, 1.64, 1.70
240, 7602.55, -5441.96, 2099.31, -3549.71, 0.00, 0.00, 0.00, 0.00, 1.57, 1.64, 1.70
241, 7649.93, -5492.58, 2122.11, -3562.87, 0.00, 0.00, 0.00, 0.00, 1.57, 1.64, 1.70
242, 7635.62, -5445.97, 2304.72, -3806.00, 0.00, 0.00, 0.00, 0.00, 1.57, 1.64, 1.70
243, 7568.73, -5356.98, 2207.95, -3696.90, 0.00, 0.00, 0.00, 0.00, 1.57, 1.64, 1.70
244, 7584.21, -5408.65, 2099.08, -3549.87, 0.00, 0.00, 0.00, 0.00, 1.57, 1.64, 1.70
245, 7637.90, -5481.17, 2089.79, -3529.46, 0.00, 0.00, 0.00, 0.00, 1.57, 1.64, 1.70
246, 7650.28, -5477.64, 2261.01, -3750.63, 0.00, 0.00, 0.00, 0.00, 1.57, 1.64, 1.70
247, 7586.02, -5368.62, 2268.13, -3762.13, 0.00, 0.00, 0.00, 0.00, 1.57, 1.64, 1.70
248, 7567.57, -5392.74, 2119.90, -3580.31, 0.00, 0.00, 0.00, 0.00, 1.57, 1.64, 1.70
249, 7628.53, -5472.94, 2079.44, -3521.13, 0.00, 0.00, 0.00, 0.00, 1.57, 1.64, 1.70
250, 7649.14, -5480.29, 2195.45, -3664.86, 0.00, 0.00, 0.00, 0.00, 1.57, 1.64, 1.70
251, 7595.79, -5388.77, 2295.45, -3803.05, 0.00, 0.00, 0.00, 0.00, 1.57, 1.64, 1.70
252, 7554.18, -5355.88, 2142.43, -3607.35, 0.00, 0.00, 0.00, 0.00, 1.57, 1.64, 1.70
253, 7607.62, -5451.77, 2090.98, -3532.75, 0.00, 0.00, 0.00, 0.00, 1.57, 1.64, 1.70
254, 7640.08, -5489.43, 2138.48, -3592.74, 0.00, 0.00, 0.00, 0.00, 1.57, 1.64, 1.70
255, 7619.71, -5438.97, 2307.69, -3815.60, 0.00, 0.00, 0.00, 0.00, 1.57, 1.64, 1.70
0, 7571.04, -5367.84, 2185.52, -3662.66, 0.00, 0.00, 0.00, 0.00, 1.57, 1.64, 1.70
1, 7604.65, -5425.98, 2098.41, -3554.89, 0.00, 0.00, 0.00, 0.00, 1.57, 1.64, 1.70
2, 7649.98, -5491.66, 2106.80, -3556.12, 0.00, 0.00, 0.00, 0.00, 1.57, 1.64, 1.70
3, 7644.00, -5460.71, 2291.62, -3795.38, 0.00, 0.00, 0.00, 0.00, 1.57, 1.64, 1.70
4, 7574.44, -5356.89, 2225.79, -3705.79, 0.00, 0.00, 0.00, 0.00, 1.57, 1.64, 1.70
5, 7586.97, -5399.13, 2105.71, -3559.08, 0.00, 0.00, 0.00, 0.00, 1.57, 1.64, 1.70
6, 7641.66, -5483.37, 2086.89, -3531.08, 0.00, 0.00, 0.00, 0.00, 1.57, 1.64, 1.70
7, 7649.07, -5476.51, 2238.54, -3728.47, 0.00, 0.00, 0.00, 0.00, 1.57, 1.64, 1.70
8, 7582.20, -5368.14, 2271.67, -3768.39, 0.00, 0.00, 0.00, 0.00, 1.57, 1.64, 1.70
9, 7564.61, -5366.73, 2118.31, -3575.57, 0.00, 0.00, 0.00, 0.00, 1.57, 1.64, 1.70
10, 7617.91, -5455.40, 2073.65, -3527.33, 0.00, 0.00, 0.00, 0.00, 1.57, 1.64, 1.70
11, 7640.50, -5477.40, 2179.87, -3640.59, 0.00, 0.00, 0.00, 0.00, 1.57, 1.64, 1.70
12, 7608.08, -5394.18, 2311.22, -3817.99, 0.00, 0.00, 0.00, 0.00, 1.57, 1.64, 1.70
13, 7565.05, -5352.12, 2150.34, -3617.43, 0.00, 0.00, 0.00, 0.00, 1.57, 1.64, 1.70
14, 7606.54, -5442.39, 2087.32, -3533.95, 0.00, 0.00, 0.00, 0.00, 1.57, 1.64, 1.70
15, 7643.67, -5482.21, 2128.90, -3580.30, 0.00, 0.00, 0.00, 0.00, 1.57, 1.64, 1.70
16, 7619.85, -5417.37, 2301.04, -3808.19, 0.00, 0.00, 0.00, 0.00, 1.57, 1.64, 1.70
17, 7561.96, -5342.48, 2183.26, -3668.43, 0.00, 0.00, 0.00, 0.00, 1.57, 1.64, 1.70
18, 7600.11, -5419.17, 2091.87, -3548.96, 0.00, 0.00, 0.00, 0.00, 1.57, 1.64, 1.70
19, 7637.80, -5481.75, 2099.02, -3543.44, 0.00, 0.00, 0.00, 0.00, 1.57, 1.64, 1.70
20, 7643.85, -5459.63, 2285.03, -3773.85, 0.00, 0.00, 0.00, 0.00, 1.57, 1.64, 1.70
21, 7578.94, -5357.71, 2246.60, -3733.64, 0.00, 0.00, 0.00, 0.00, 1.57, 1.64, 1.70
22, 7575.69, -5383.91, 2108.28, -3573.12, 0.00, 0.00, 0.00, 0.00, 1.57, 1.64, 1.70
23, 7628.77, -5467.36, 2079.61, -3517.98, 0.00, 0.00, 0.00, 0.00, 1.57, 1.64, 1.70
24, 7642.70, -5465.00, 2228.31, -3708.74, 0.00, 0.00, 0.00, 0.00, 1.57, 1.64, 1.70
25, 7598.53, -5378.01, 2290.47, -3792.59, 0.00, 0.00, 0.00, 0.00, 1.57, 1.64, 1.70
26, 7566.65, -5357.90, 2132.76, -3584.67, 0.00, 0.00, 0.00, 0.00, 1.57, 1.64, 1.70
27, 7611.69, -5446.12, 2083.12, -3525.80, 0.00, 0.00, 0.00, 0.00, 1.57, 1.64, 1.70
28, 7639.29, -5470.05, 2159.18, -3622.29, 0.00, 0.00, 0.00, 0.00, 1.57, 1.64, 1.70
29, 7597.69, -5382.60, 2300.45, -3811.56, 0.00, 0.00, 0.00, 0.00, 1.57, 1.64, 1.70
30, 7547.86, -5330.75, 2156.67, -3619.96, 0.00, 0.00, 0.00, 0.00, 1.57, 1.64, 1.70
31, 7587.20, -5416.36, 2088.48, -3526.49, 0.00, 0.00, 0.00, 0.00, 1.57, 1.64, 1.70
32, 7623.27, -5455.05, 2108.22, -3551.87, 0.00, 0.00, 0.00, 0.00, 1.57, 1.64, 1.70
33, 7601.42, -5398.22, 2288.60, -3792.48, 0.00, 0.00, 0.00, 0.00, 1.57, 1.64, 1.70
34, 7545.97, -5309.47, 2186.23, -3660.60, 0.00, 0.00, 0.00, 0.00, 1.57, 1.64, 1.70
35, 7551.23, -5356.14, 2079.41, -3526.16, 0.00, 0.00, 0.00, 0.00, 1.57, 1.64, 1.70
36, 7597.17, -5430.04, 2076.70, -3511.26, 0.00, 0.00, 0.00, 0.00, 1.57, 1.64, 1.70
37, 7601.06, -5401.79, 2244.08, -3733.47, 0.00, 0.00, 0.00, 0.00, 1.57, 1.64, 1.70
38, 7526.86, -5286.73, 2225.19, -3710.18, 0.00, 0.00, 0.00, 0.00, 1.57, 1.64, 1.70
39, 7509.29, -5297.91, 2076.11, -3525.82, 0.00, 0.00, 0.00, 0.00, 1.57, 1.64, 1.70
40, 7557.92, -5393.46, 2048.59, -3473.09, 0.00, 0.00, 0.00, 0.00, 1.57, 1.64, 1.70
41, 7567.73, -5387.92, 2164.95, -3633.98, 0.00, 0.00, 0.00, 0.00, 1.57, 1.64, 1.70
42, 7516.84, -5276.86, 2259.04, -3749.65, 0.00, 0.00, 0.00, 0.00, 1.57, 1.64, 1.70
43, 7482.24, -5248.94, 2100.52, -3544.17, 0.00, 0.00, 0.00, 0.00, 1.57, 1.64, 1.70
44, 7536.10, -5338.15, 2046.45, -3472.29, 0.00, 0.00, 0.00, 0.00, 1.57, 1.64, 1.70
45, 7563.13, -5376.23, 2110.51, -3551.94, 0.00, 0.00, 0.00, 0.00, 1.57, 1.64, 1.70
46, 7533.63, -5298.41, 2263.49, -3762.01, 0.00, 0.00, 0.00, 0.00, 1.57, 1.64, 1.70
47, 7465.90, -5236.03, 2124.63, -3588.95, 0.00, 0.00, 0.00, 0.00, 1.57, 1.64, 1.70
48, 7502.29, -5321.28, 2060.12, -3486.87, 0.00, 0.00, 0.00, 0.00, 1.57, 1.64, 1.70
49, 7559.65, -5371.60, 2070.26, -3503.36, 0.00, 0.00, 0.00, 0.00, 1.57, 1.64, 1.70
50, 7550.35, -5342.87, 2266.11, -3750.94, 0.00, 0.00, 0.00, 0.00, 1.57, 1.64, 1.70
51, 7473.28, -5241.30, 2171.70, -3638.88, 0.00, 0.00, 0.00, 0.00, 1.57, 1.64, 1.70
52, 7497.96, -5290.05, 2061.42, -3499.47, 0.00, 0.00, 0.00, 0.00, 1.57, 1.64, 1.70
53, 7555.07, -5374.85, 2053.75, -3476.25, 0.00, 0.00, 0.00, 0.00, 1.57, 1.64, 1.70
54, 7566.46, -5355.99, 2213.74, -3687.60, 0.00, 0.00, 0.00, 0.00, 1.57, 1.64, 1.70
55, 7516.43, -5269.22, 2233.96, -3717.00, 0.00, 0.00, 0.00, 0.00, 1.57, 1.64, 1.70
56, 7513.99, -5292.74, 2098.50, -3539.94, 0.00, 0.00, 0.00, 0.00, 1.57, 1.64, 1.70
57, 7572.95, -5388.02, 2059.40, -3486.85, 0.00, 0.00, 0.00, 0.00, 1.57, 1.64, 1.70
58, 7592.10, -5406.94, 2167.09, -3629.73, 0.00, 0.00, 0.00, 0.00, 1.57, 1.64, 1.70
59, 7550.82, -5321.97, 2280.29, -3776.01, 0.00, 0.00, 0.00, 0.00, 1.57, 1.64, 1.70
60, 7522.06, -5297.81, 2122.80, -3580.24, 0.00, 0.00, 0.00, 0.00, 1.57, 1.64, 1.70
61, 7575.56, -5380.96, 2072.70, -3513.06, 0.00, 0.00, 0.00, 0.00, 1.57, 1.64, 1.70
62, 7608.70, -5427.43, 2120.85, -3564.35, 0.00, 0.00, 0.00, 0.00, 1.57, 1.64, 1.70
63, 7594.49, -5362.72, 2300.31, -3794.14, 0.00, 0.00, 0.00, 0.00, 1.57, 1.64, 1.70
64, 7526.52, -5284.72, 2157.08, -3625.18, 0.00, 0.00, 0.00, 0.00, 1.57, 1.64, 1.70
65, 7571.22, -5374.45, 2083.42, -3531.53, 0.00, 0.00, 0.00, 0.00, 1.57, 1.64, 1.70
66, 7615.73, -5446.23, 2082.03, -3527.68, 0.00, 0.00, 0.00, 0.00, 1.57, 1.64, 1.70
67, 7613.70, -5406.10, 2273.95, -3774.65, 0.00, 0.00, 0.00, 0.00, 1.57, 1.64, 1.70
68, 7547.20, -5300.49, 2205.02, -3689.12, 0.00, 0.00, 0.00, 0.00, 1.57, 1.64, 1.70
69, 7561.64, -5355.55, 2089.42, -3542.34, 0.00, 0.00, 0.00, 0.00, 1.57, 1.64, 1.70
70, 7616.86, -5439.80, 2072.25, -3504.94, 0.00, 0.00, 0.00, 0.00, 1.57, 1.64, 1.70
71, 7628.89, -5433.10, 2223.88, -3706.15, 0.00, 0.00, 0.00, 0.00, 1.57, 1.64, 1.70
72, 7571.61, -5334.73, 2263.28, -3769.38, 0.00, 0.00, 0.00, 0.00, 1.57, 1.64, 1.70
73, 7552.90, -5337.98, 2115.76, -3573.76, 0.00, 0.00, 0.00, 0.00, 1.57, 1.64, 1.70
74, 7608.90, -5418.72, 2067.98, -3504.47, 0.00, 0.00, 0.00, 0.00, 1.57, 1.64, 1.70
75, 7628.01, -5439.19, 2156.29, -3622.98, 0.00, 0.00, 0.00, 0.00, 1.57, 1.64, 1.70
76, 7584.26, -5352.70, 2286.45, -3787.22, 0.00, 0.00, 0.00, 0.00, 1.57, 1.64, 1.70
77, 7545.26, -5307.33, 2133.60, -3602.49, 0.00, 0.00, 0.00, 0.00, 1.57, 1.64, 1.70
78, 7590.81, -5398.12, 2074.36, -3521.13, 0.00, 0.00, 0.00, 0.00, 1.57, 1.64, 1.70
79, 7632.88, -5445.00, 2109.41, -3567.44, 0.00, 0.00, 0.00, 0.00, 1.57, 1.64, 1.70
80, 7608.70, -5385.01, 2281.29, -3797.92, 0.00, 0.00, 0.00, 0.00, 1.57, 1.64, 1.70
81, 7549.06, -5306.63, 2168.20, -3647.90, 0.00, 0.00, 0.00, 0.00, 1.57, 1.64, 1.70
82, 7579.89, -5380.23, 2078.48, -3529.17, 0.00, 0.00, 0.00, 0.00, 1.57, 1.64, 1.70
83, 7628.69, -5440.54, 2077.38, -3518.58, 0.00, 0.00, 0.00, 0.00, 1.57, 1.64, 1.70
84, 7629.50, -5412.99, 2255.87, -3759.68, 0.00, 0.00, 0.00, 0.00, 1.57, 1.64, 1.70
85, 7570.14, -5322.93, 2237.95, -3724.68, 0.00, 0.00, 0.00, 0.00, 1.57, 1.64, 1.70
86, 7578.00, -5359.04, 2098.77, -3557.77, 0.00, 0.00, 0.00, 0.00, 1.57, 1.64, 1.70
87, 7622.65, -5440.19, 2063.39, -3506.32, 0.00, 0.00, 0.00, 0.00, 1.57, 1.64, 1.70
88, 7638.15, -5449.75, 2210.21, -3689.10, 0.00, 0.00, 0.00, 0.00, 1.57, 1.64, 1.70
89, 7586.57, -5348.18, 2283.80, -3786.58, 0.00, 0.00, 0.00, 0.00, 1.57, 1.64, 1.70
90, 7555.60, -5335.97, 2119.35, -3581.40, 0.00, 0.00, 0.00, 0.00, 1.57, 1.64, 1.70
91, 7612.77, -5428.03, 2074.21, -3522.81, 0.00, 0.00, 0.00, 0.00, 1.57, 1.64, 1.70
92, 7640.39, -5452.36, 2154.52, -3617.32, 0.00, 0.00, 0.00, 0.00, 1.57, 1.64, 1.70
93, 7605.82, -5377.94, 2298.10, -3808.82, 0.00, 0.00, 0.00, 0.00, 1.57, 1.64, 1.70
94, 7555.20, -5317.18, 2142.00, -3618.83, 0.00, 0.00, 0.00, 0.00, 1.57, 1.64, 1.70
95, 7596.87, -5400.96, 2077.38, -3529.00, 0.00, 0.00, 0.00, 0.00, 1.57, 1.64, 1.70
96, 7643.65, -5459.18, 2103.03, -3556.01, 0.00, 0.00, 0.00, 0.00, 1.57, 1.64, 1.70
97, 7617.40, -5401.89, 2283.58, -3789.41, 0.00, 0.00, 0.00, 0.00, 1.57, 1.64, 1.70
98, 7566.25, -5323.32, 2189.54, -3672.29, 0.00, 0.00, 0.00, 0.00, 1.57, 1.64, 1.70
99, 7589.83, -5380.15, 2084.41, -3541.42, 0.00, 0.00, 0.00, 0.00, 1.57, 1.64, 1.70
100, 7635.90, -5453.53, 2072.08, -3518.10, 0.00, 0.00, 0.00, 0.00, 1.57, 1.64, 1.70
101, 7636.43, -5429.54, 2246.18, -3745.43, 0.00, 0.00, 0.00, 0.00, 1.57, 1.64, 1.70
102, 7574.54, -5330.03, 2242.03, -3737.80, 0.00, 0.00, 0.00, 0.00, 1.57, 1.64, 1.70
103, 7558.43, -5338.19, 2091.32, -3551.42, 0.00, 0.00, 0.00, 0.00, 1.57, 1.64, 1.70
104, 7611.90, -5426.03, 2058.66, -3499.41, 0.00, 0.00, 0.00, 0.00, 1.57, 1.64, 1.70
105, 7630.65, -5432.94, 2179.23, -3656.54, 0.00, 0.00, 0.00, 0.00, 1.57, 1.64, 1.70
106, 7586.61, -5342.67, 2278.60, -3788.67, 0.00, 0.00, 0.00, 0.00, 1.57, 1.64, 1.70
107, 7555.10, -5317.98, 2119.72, -3591.17, 0.00, 0.00, 0.00, 0.00, 1.57, 1.64, 1.70
108, 7599.66, -5412.24, 2066.95, -3507.59, 0.00, 0.00, 0.00, 0.00, 1.57, 1.64, 1.70
109, 7628.38, -5443.49, 2124.61, -3576.41, 0.00, 0.00, 0.00, 0.00, 1.57, 1.64, 1.70
110, 7606.06, -5381.13, 2289.72, -3804.20, 0.00, 0.00, 0.00, 0.00, 1.57, 1.64, 1.70
111, 7547.24, -5313.64, 2150.70, -3624.03, 0.00, 0.00, 0.00, 0.00, 1.57, 1.64, 1.70
112, 7591.54, -5399.73, 2078.36, -3531.44, 0.00, 0.00, 0.00, 0.00, 1.57, 1.64, 1.70
113, 7629.98, -5455.46, 2090.85, -3539.90, 0.00, 0.00, 0.00, 0.00, 1.57, 1.64, 1.70
114, 7624.55, -5404.51, 2280.25, -3779.16, 0.00, 0.00, 0.00, 0.00, 1.57, 1.64, 1.70
115, 7548.62, -5302.60, 2195.54, -3667.57, 0.00, 0.00, 0.00, 0.00, 1.57, 1.64, 1.70
116, 7564.62, -5354.39, 2079.44, -3533.00, 0.00, 0.00, 0.00, 0.00, 1.57, 1.64, 1.70
117, 7616.49, -5435.31, 2067.09, -3514.52, 0.00, 0.00, 0.00, 0.00, 1.57, 1.64, 1.70
118, 7633.00, -5427.40, 2235.83, -3723.63, 0.00, 0.00, 0.00, 0.00, 1.57, 1.64, 1.70
119, 7574.08, -5325.67, 2258.39, -3757.04, 0.00, 0.00, 0.00, 0.00, 1.57, 1.64, 1.70
120, 7556.86, -5332.47, 2103.49, -3566.11, 0.00, 0.00, 0.00, 0.00, 1.57, 1.64, 1.70
121, 7609.90, -5424.25, 2068.25, -3512.50, 0.00, 0.00, 0.00, 0.00, 1.57, 1.64, 1.70
122, 7633.04, -5441.80, 2177.68, -3644.72, 0.00, 0.00, 0.00, 0.00, 1.57, 1.64, 1.70
123, 7588.23, -5353.45, 2281.63, -3792.97, 0.00, 0.00, 0.00, 0.00, 1.57, 1.64, 1.70
124, 7549.42, -5312.51, 2121.84, -3590.76, 0.00, 0.00, 0.00, 0.00, 1.57, 1.64, 1.70
125, 7593.49, -5398.99, 2066.85, -3511.24, 0.00, 0.00, 0.00, 0.00, 1.57, 1.64, 1.70
126, 7626.01, -5444.28, 2115.82, -3566.06, 0.00, 0.00, 0.00, 0.00, 1.57, 1.64, 1.70
127, 7603.99, -5383.94, 2292.03, -3806.31, 0.00, 0.00, 0.00, 0.00, 1.57, 1.64, 1.70
128, 7549.86, -5316.88, 2165.76, -3640.27, 0.00, 0.00, 0.00, 0.00, 1.57, 1.64, 1.70
129, 7589.23, -5389.28, 2088.66, -3536.52, 0.00, 0.00, 0.00, 0.00, 1.57, 1.64, 1.70
130, 7633.69, -5441.65, 2080.74, -3525.53, 0.00, 0.00, 0.00, 0.00, 1.57, 1.64, 1.70
131, 7622.99, -5412.48, 2268.41, -3775.06, 0.00, 0.00, 0.00, 0.00, 1.57, 1.64, 1.70
132, 7548.06, -5305.37, 2206.80, -3695.05, 0.00, 0.00, 0.00, 0.00, 1.57, 1.64, 1.70
133, 7558.79, -5345.80, 2087.44, -3540.19, 0.00, 0.00, 0.00, 0.00, 1.57, 1.64, 1.70
134, 7613.96, -5436.86, 2066.37, -3502.38, 0.00, 0.00, 0.00, 0.00, 1.57, 1.64, 1.70
135, 7626.10, -5433.87, 2212.27, -3699.10, 0.00, 0.00, 0.00, 0.00, 1.57, 1.64, 1.70
136, 7576.87, -5334.65, 2266.82, -3765.27, 0.00, 0.00, 0.00, 0.00, 1.57, 1.64, 1.70
137, 7556.57, -5331.44, 2110.05, -3574.77, 0.00, 0.00, 0.00, 0.00, 1.57, 1.64, 1.70
138, 7611.86, -5428.05, 2066.60, -3513.64, 0.00, 0.00, 0.00, 0.00, 1.57, 1.64, 1.70
139, 7636.75, -5455.64, 2156.73, -3626.30, 0.00, 0.00, 0.00, 0.00, 1.57, 1.64, 1.70
140, 7596.27, -5368.47, 2290.15, -3805.09, 0.00, 0.00, 0.00, 0.00, 1.57, 1.64, 1.70
141, 7548.01, -5311.05, 2133.48, -3601.85, 0.00, 0.00, 0.00, 0.00, 1.57, 1.64, 1.70
142, 7587.30, -5395.75, 2068.29, -3517.55, 0.00, 0.00, 0.00, 0.00, 1.57, 1.64, 1.70
143, 7626.83, -5442.27, 2105.52, -3558.46, 0.00, 0.00, 0.00, 0.00, 1.57, 1.64, 1.70
144, 7615.16, -5389.83, 2289.70, -3796.85, 0.00, 0.00, 0.00, 0.00, 1.57, 1.64, 1.70
145, 7553.68, -5306.76, 2173.01, -3652.74, 0.00, 0.00, 0.00, 0.00, 1.57, 1.64, 1.70
146, 7573.95, -5373.26, 2075.87, -3528.26, 0.00, 0.00, 0.00, 0.00, 1.57, 1.64, 1.70
147, 7624.11, -5448.49, 2078.75, -3525.61, 0.00, 0.00, 0.00, 0.00, 1.57, 1.64, 1.70
148, 7632.98, -5429.40, 2268.15, -3761.48, 0.00, 0.00, 0.00, 0.00, 1.57, 1.64, 1.70
149, 7563.60, -5320.28, 2228.71, -3714.43, 0.00, 0.00, 0.00, 0.00, 1.57, 1.64, 1.70
150, 7567.67, -5362.19, 2095.17, -3554.51, 0.00, 0.00, 0.00, 0.00, 1.57, 1.64, 1.70
151, 7620.13, -5429.87, 2059.90, -3502.16, 0.00, 0.00, 0.00, 0.00, 1.57, 1.64, 1.70
152, 7634.99, -5430.93, 2193.48, -3674.68, 0.00, 0.00, 0.00, 0.00, 1.57, 1.64, 1.70
153, 7576.11, -5328.46, 2267.14, -3779.06, 0.00, 0.00, 0.00, 0.00, 1.57, 1.64, 1.70
154, 7552.66, -5322.22, 2113.49, -3574.33, 0.00, 0.00, 0.00, 0.00, 1.57, 1.64, 1.70
155, 7612.26, -5418.36, 2069.82, -3511.15, 0.00, 0.00, 0.00, 0.00, 1.57, 1.64, 1.70
156, 7641.58, -5445.31, 2146.74, -3607.51, 0.00, 0.00, 0.00, 0.00, 1.57, 1.64, 1.70
157, 7596.94, -5364.14, 2283.74, -3805.62, 0.00, 0.00, 0.00, 0.00, 1.57, 1.64, 1.70
158, 7543.02, -5304.47, 2150.37, -3611.81, 0.00, 0.00, 0.00, 0.00, 1.57, 1.64, 1.70
159, 7598.30, -5401.03, 2080.23, -3534.07, 0.00, 0.00, 0.00, 0.00, 1.57, 1.64, 1.70
160, 7632.54, -5445.71, 2097.59, -3546.21, 0.00, 0.00, 0.00, 0.00, 1.57, 1.64, 1.70
161, 7625.33, -5400.01, 2289.13, -3795.86, 0.00, 0.00, 0.00, 0.00, 1.57, 1.64, 1.70
162, 7560.08, -5313.31, 2189.83, -3676.26, 0.00, 0.00, 0.00, 0.00, 1.57, 1.64, 1.70
163, 7576.84, -5362.38, 2078.81, -3537.17, 0.00, 0.00, 0.00, 0.00, 1.57, 1.64, 1.70
164, 7627.07, -5435.98, 2076.23, -3518.23, 0.00, 0.00, 0.00, 0.00, 1.57, 1.64, 1.70
165, 7635.40, -5426.37, 2249.96, -3744.94, 0.00, 0.00, 0.00, 0.00, 1.57, 1.64, 1.70
166, 7563.43, -5323.13, 2234.67, -3727.23, 0.00, 0.00, 0.00, 0.00, 1.57, 1.64, 1.70
167, 7556.65, -5347.82, 2103.90, -3564.96, 0.00, 0.00, 0.00, 0.00, 1.57, 1.64, 1.70
168, 7618.57, -5427.43, 2063.91, -3500.53, 0.00, 0.00, 0.00, 0.00, 1.57, 1.64, 1.70
169, 7633.76, -5429.20, 2183.01, -3657.65, 0.00, 0.00, 0.00, 0.00, 1.57, 1.64, 1.70
170, 7583.25, -5341.18, 2280.24, -3787.30, 0.00, 0.00, 0.00, 0.00, 1.57, 1.64, 1.70
171, 7549.24, -5317.85, 2121.11, -3591.52, 0.00, 0.00, 0.00, 0.00, 1.57, 1.64, 1.70
172, 7599.36, -5402.20, 2062.79, -3509.87, 0.00, 0.00, 0.00, 0.00, 1.57, 1.64, 1.70
173, 7630.30, -5439.88, 2123.07, -3578.33, 0.00, 0.00, 0.00, 0.00, 1.57, 1.64, 1.70
174, 7602.29, -5367.33, 2290.61, -3801.21, 0.00, 0.00, 0.00, 0.00, 1.57, 1.64, 1.70
175, 7551.65, -5302.31, 2148.83, -3628.05, 0.00, 0.00, 0.00, 0.00, 1.57, 1.64, 1.70
176, 7585.56, -5376.33, 2069.33, -3522.71, 0.00, 0.00, 0.00, 0.00, 1.57, 1.64, 1.70
177, 7623.88, -5434.32, 2082.68, -3524.04, 0.00, 0.00, 0.00, 0.00, 1.57, 1.64, 1.70
178, 7615.59, -5396.81, 2274.68, -3767.50, 0.00, 0.00, 0.00, 0.00, 1.57, 1.64, 1.70
179, 7544.44, -5294.99, 2190.86, -3675.38, 0.00, 0.00, 0.00, 0.00, 1.57, 1.64, 1.70
180, 7552.84, -5348.07, 2070.26, -3523.88, 0.00, 0.00, 0.00, 0.00, 1.57, 1.64, 1.70
181, 7613.25, -5423.46, 2060.68, -3496.63, 0.00, 0.00, 0.00, 0.00, 1.57, 1.64, 1.70
182, 7621.46, -5417.23, 2220.68, -3707.58, 0.00, 0.00, 0.00, 0.00, 1.57, 1.64, 1.70
183, 7560.12, -5317.87, 2248.55, -3746.21, 0.00, 0.00, 0.00, 0.00, 1.57, 1.64, 1.70
184, 7545.31, -5326.02, 2109.89, -3567.92, 0.00, 0.00, 0.00, 0.00, 1.57, 1.64, 1.70
185, 7596.35, -5414.71, 2054.45, -3495.32, 0.00, 0.00, 0.00, 0.00, 1.57, 1.64, 1.70
186, 7617.55, -5422.64, 2165.25, -3623.48, 0.00, 0.00, 0.00, 0.00, 1.57, 1.64, 1.70
187, 7578.10, -5346.54, 2278.54, -3793.78, 0.00, 0.00, 0.00, 0.00, 1.57, 1.64, 1.70
188, 7542.98, -5301.86, 2123.59, -3584.02, 0.00, 0.00, 0.00, 0.00, 1.57, 1.64, 1.70
189, 7597.37, -5394.25, 2070.01, -3525.25, 0.00, 0.00, 0.00, 0.00, 1.57, 1.64, 1.70
190, 7639.62, -5438.43, 2119.17, -3573.50, 0.00, 0.00, 0.00, 0.00, 1.57, 1.64, 1.70
191, 7607.97, -5371.57, 2289.25, -3798.01, 0.00, 0.00, 0.00, 0.00, 1.57, 1.64, 1.70
192, 7548.37, -5298.44, 2163.48, -3635.67, 0.00, 0.00, 0.00, 0.00, 1.57, 1.64, 1.70
193, 7590.42, -5381.84, 2084.38, -3533.52, 0.00, 0.00, 0.00, 0.00, 1.57, 1.64, 1.70
194, 7628.72, -5432.44, 2075.96, -3524.68, 0.00, 0.00, 0.00, 0.00, 1.57, 1.64, 1.70
195, 7625.50, -5401.00, 2261.28, -3766.79, 0.00, 0.00, 0.00, 0.00, 1.57, 1.64, 1.70
196, 7556.50, -5299.58, 2201.98, -3687.12, 0.00, 0.00, 0.00, 0.00, 1.57, 1.64, 1.70
197, 7561.63, -5345.99, 2090.77, -3548.32, 0.00, 0.00, 0.00, 0.00, 1.57, 1.64, 1.70
198, 7620.48, -5421.14, 2059.83, -3499.45, 0.00, 0.00, 0.00, 0.00, 1.57, 1.64, 1.70
199, 7632.59, -5417.90, 2207.31, -3691.51, 0.00, 0.00, 0.00, 0.00, 1.57, 1.64, 1.70
200, 7567.20, -5314.03, 2258.12, -3757.55, 0.00, 0.00, 0.00, 0.00, 1.57, 1.64, 1.70
201, 7544.53, -5305.14, 2101.34, -3560.90, 0.00, 0.00, 0.00, 0.00, 1.57, 1.64, 1.70
202, 7606.91, -5405.99, 2069.46, -3508.40, 0.00, 0.00, 0.00, 0.00, 1.57, 1.64, 1.70
203, 7630.14, -5423.71, 2145.89, -3603.89, 0.00, 0.00, 0.00, 0.00, 1.57, 1.64, 1.70
204, 7591.82, -5343.34, 2291.64, -3808.41, 0.00, 0.00, 0.00, 0.00, 1.57, 1.64, 1.70
205, 7541.61, -5289.68, 2128.05, -3593.46, 0.00, 0.00, 0.00, 0.00, 1.57, 1.64, 1.70
206, 7588.68, -5383.36, 2070.25, -3519.28, 0.00, 0.00, 0.00, 0.00, 1.57, 1.64, 1.70
207, 7625.06, -5431.44, 2101.52, -3552.80, 0.00, 0.00, 0.00, 0.00, 1.57, 1.64, 1.70
208, 7604.47, -5372.59, 2277.42, -3785.68, 0.00, 0.00, 0.00, 0.00, 1.57, 1.64, 1.70
209, 7538.99, -5284.29, 2163.59, -3642.60, 0.00, 0.00, 0.00, 0.00, 1.57, 1.64, 1.70
210, 7567.57, -5354.35, 2082.54, -3532.06, 0.00, 0.00, 0.00, 0.00, 1.57, 1.64, 1.70
211, 7626.19, -5427.08, 2081.42, -3517.01, 0.00, 0.00, 0.00, 0.00, 1.57, 1.64, 1.70
212, 7622.89, -5392.55, 2248.96, -3745.79, 0.00, 0.00, 0.00, 0.00, 1.57, 1.64, 1.70
213, 7559.67, -5299.53, 2228.32, -3714.77, 0.00, 0.00, 0.00, 0.00, 1.57, 1.64, 1.70
214, 7550.82, -5323.88, 2088.96, -3539.81, 0.00, 0.00, 0.00, 0.00, 1.57, 1.64, 1.70
215, 7614.94, -5412.85, 2059.92, -3496.53, 0.00, 0.00, 0.00, 0.00, 1.57, 1.64, 1.70
216, 7630.92, -5418.96, 2199.74, -3676.67, 0.00, 0.00, 0.00, 0.00, 1.57, 1.64, 1.70
217, 7578.95, -5322.90, 2283.20, -3778.41, 0.00, 0.00, 0.00, 0.00, 1.57, 1.64, 1.70
218, 7540.21, -5298.22, 2104.36, -3568.99, 0.00, 0.00, 0.00, 0.00, 1.57, 1.64, 1.70
219, 7596.97, -5397.27, 2062.65, -3504.96, 0.00, 0.00, 0.00, 0.00, 1.57, 1.64, 1.70
220, 7634.87, -5430.15, 2131.32, -3592.87, 0.00, 0.00, 0.00, 0.00, 1.57, 1.64, 1.70
221, 7589.34, -5353.52, 2285.63, -3801.11, 0.00, 0.00, 0.00, 0.00, 1.57, 1.64, 1.70
222, 7540.03, -5283.69, 2137.68, -3608.39, 0.00, 0.00, 0.00, 0.00, 1.57, 1.64, 1.70
223, 7583.76, -5364.22, 2067.12, -3514.88, 0.00, 0.00, 0.00, 0.00, 1.57, 1.64, 1.70
224, 7620.09, -5418.71, 2087.44, -3529.57, 0.00, 0.00, 0.00, 0.00, 1.57, 1.64, 1.70
225, 7608.35, -5374.67, 2273.06, -3780.54, 0.00, 0.00, 0.00, 0.00, 1.57, 1.64, 1.70
226, 7542.57, -5293.15, 2183.59, -3664.66, 0.00, 0.00, 0.00, 0.00, 1.57, 1.64, 1.70
227, 7563.40, -5347.26, 2076.56, -3529.93, 0.00, 0.00, 0.00, 0.00, 1.57, 1.64, 1.70
228, 7609.24, -5413.52, 2063.19, -3501.93, 0.00, 0.00, 0.00, 0.00, 1.57, 1.64, 1.70
229, 7620.12, -5393.97, 2227.92, -3720.88, 0.00, 0.00, 0.00, 0.00, 1.57, 1.64, 1.70
230, 7562.52, -5296.06, 2236.43, -3728.27, 0.00, 0.00, 0.00, 0.00, 1.57, 1.64, 1.70
231, 7557.28, -5314.93, 2097.64, -3550.62, 0.00, 0.00, 0.00, 0.00, 1.57, 1.64, 1.70
232, 7602.40, -5396.02, 2057.40, -3493.55, 0.00, 0.00, 0.00, 0.00, 1.57, 1.64, 1.70
233, 7616.24, -5407.13, 2171.57, -3637.10, 0.00, 0.00, 0.00, 0.00, 1.57, 1.64, 1.70
234, 7579.16, -5321.49, 2271.22, -3782.88, 0.00, 0.00, 0.00, 0.00, 1.57, 1.64, 1.70
235, 7535.74, -5291.60, 2107.34, -3571.86, 0.00, 0.00, 0.00, 0.00, 1.57, 1.64, 1.70
236, 7585.82, -5390.11, 2062.89, -3505.54, 0.00, 0.00, 0.00, 0.00, 1.57, 1.64, 1.70
237, 7621.72, -5417.45, 2113.42, -3569.19, 0.00, 0.00, 0.00, 0.00, 1.57, 1.64, 1.70
238, 7602.63, -5353.51, 2288.37, -3794.39, 0.00, 0.00, 0.00, 0.00, 1.57, 1.64, 1.70
239, 7538.19, -5282.65, 2140.09, -3612.19, 0.00, 0.00, 0.00, 0.00, 1.57, 1.64, 1.70
240, 7568.31, -5356.67, 2065.20, -3514.50, 0.00, 0.00, 0.00, 0.00, 1.57, 1.64, 1.70
241, 7617.87, -5410.64, 2071.73, -3521.30, 0.00, 0.00, 0.00, 0.00, 1.57, 1.64, 1.70
242, 7606.22, -5365.89, 2258.89, -3759.70, 0.00, 0.00, 0.00, 0.00, 1.57, 1.64, 1.70
243, 7542.78, -5284.94, 2185.55, -3676.86, 0.00, 0.00, 0.00, 0.00, 1.57, 1.64, 1.70
244, 7546.70, -5326.35, 2063.98, -3522.47, 0.00, 0.00, 0.00, 0.00, 1.57, 1.64, 1.70
245, 7603.39, -5407.67, 2052.74, -3495.09, 0.00, 0.00, 0.00, 0.00, 1.57, 1.64, 1.70
246, 7613.93, -5390.32, 2207.54, -3695.88, 0.00, 0.00, 0.00, 0.00, 1.57, 1.64, 1.70
247, 7557.12, -5298.66, 2241.48, -3743.35, 0.00, 0.00, 0.00, 0.00, 1.57, 1.64, 1.70
248, 7548.74, -5308.48, 2092.86, -3558.53, 0.00, 0.00, 0.00, 0.00, 1.57, 1.64, 1.70
249, 7586.61, -5395.77, 2046.33, -3487.94, 0.00, 0.00, 0.00, 0.00, 1.57, 1.64, 1.70
250, 7613.57, -5408.23, 2150.95, -3611.33, 0.00, 0.00, 0.00, 0.00, 1.57, 1.64, 1.70
251, 7569.65, -5322.30, 2276.15, -3782.88, 0.00, 0.00, 0.00, 0.00, 1.57, 1.64, 1.70
252, 7526.28, -5279.75, 2108.27, -3578.14, 0.00, 0.00, 0.00, 0.00, 1.57, 1.64, 1.70
253, 7572.65, -5375.23, 2056.08, -3507.92, 0.00, 0.00, 0.00, 0.00, 1.57, 1.64, 1.70
254, 7614.88, -5413.33, 2099.96, -3545.40, 0.00, 0.00, 0.00, 0.00, 1.57, 1.64, 1.70
255, 7597.08, -5343.61, 2273.53, -3787.21, 0.00, 0.00, 0.00, 0.00, 1.57, 1.64, 1.70
0, 7537.37, -5272.08, 2151.94, -3632.93, 0.00, 0.00, 0.00, 0.00, 1.57, 1.64, 1.70
1, 7565.85, -5343.73, 2058.85, -3511.91, 0.00, 0.00, 0.00, 0.00, 1.57, 1.64, 1.70
2, 7607.52, -5417.59, 2067.67, -3510.63, 0.00, 0.00, 0.00, 0.00, 1.57, 1.64, 1.70
3, 7606.45, -5380.08, 2246.25, -3740.07, 0.00, 0.00, 0.00, 0.00, 1.57, 1.64, 1.70
4, 7538.57, -5280.17, 2198.18, -3687.08, 0.00, 0.00, 0.00, 0.00, 1.57, 1.64, 1.70
5, 7548.20, -5320.57, 2077.69, -3535.86, 0.00, 0.00, 0.00, 0.00, 1.57, 1.64, 1.70
6, 7602.85, -5408.47, 2052.17, -3494.84, 0.00, 0.00, 0.00, 0.00, 1.57, 1.64, 1.70
7, 7616.51, -5404.12, 2197.45, -3675.04, 0.00, 0.00, 0.00, 0.00, 1.57, 1.64, 1.70
8, 7553.46, -5302.39, 2249.12, -3752.86, 0.00, 0.00, 0.00, 0.00, 1.57, 1.64, 1.70
9, 7535.21, -5298.99, 2099.13, -3560.92, 0.00, 0.00, 0.00, 0.00, 1.57, 1.64, 1.70
10, 7587.77, -5386.94, 2048.66, -3490.27, 0.00, 0.00, 0.00, 0.00, 1.57, 1.64, 1.70
11, 7617.04, -5413.79, 2134.53, -3600.56, 0.00, 0.00, 0.00, 0.00, 1.57, 1.64, 1.70
12, 7573.79, -5332.67, 2276.80, -3781.69, 0.00, 0.00, 0.00, 0.00, 1.57, 1.64, 1.70
13, 7522.46, -5288.04, 2120.32, -3591.52, 0.00, 0.00, 0.00, 0.00, 1.57, 1.64, 1.70
14, 7573.00, -5362.71, 2054.99, -3509.48, 0.00, 0.00, 0.00, 0.00, 1.57, 1.64, 1.70
15, 7613.63, -5403.65, 2085.98, -3535.09, 0.00, 0.00, 0.00, 0.00, 1.57, 1.64, 1.70
16, 7590.44, -5358.20, 2270.15, -3771.74, 0.00, 0.00, 0.00, 0.00, 1.57, 1.64, 1.70
17, 7533.76, -5274.74, 2165.95, -3646.35, 0.00, 0.00, 0.00, 0.00, 1.57, 1.64, 1.70
18, 7559.75, -5332.65, 2065.93, -3520.58, 0.00, 0.00, 0.00, 0.00, 1.57, 1.64, 1.70
19, 7600.88, -5404.80, 2050.16, -3499.15, 0.00, 0.00, 0.00, 0.00, 1.57, 1.64, 1.70
20, 7606.50, -5387.37, 2233.54, -3732.63, 0.00, 0.00, 0.00, 0.00, 1.57, 1.64, 1.70
21, 7540.64, -5278.36, 2204.28, -3704.61, 0.00, 0.00, 0.00, 0.00, 1.57, 1.64, 1.70
22, 7539.51, -5310.47, 2078.77, -3537.03, 0.00, 0.00, 0.00, 0.00, 1.57, 1.64, 1.70
23, 7595.28, -5395.61, 2045.13, -3487.00, 0.00, 0.00, 0.00, 0.00, 1.57, 1.64, 1.70
24, 7613.16, -5396.13, 2171.27, -3650.47, 0.00, 0.00, 0.00, 0.00, 1.57, 1.64, 1.70
25, 7564.37, -5301.24, 2258.98, -3760.95, 0.00, 0.00, 0.00, 0.00, 1.57, 1.64, 1.70
26, 7535.32, -5286.99, 2103.06, -3564.01, 0.00, 0.00, 0.00, 0.00, 1.57, 1.64, 1.70
27, 7584.22, -5376.97, 2048.05, -3490.83, 0.00, 0.00, 0.00, 0.00, 1.57, 1.64, 1.70
28, 7611.69, -5401.06, 2115.05, -3566.67, 0.00, 0.00, 0.00, 0.00, 1.57, 1.64, 1.70
29, 7575.91, -5324.06, 2267.94, -3772.16, 0.00, 0.00, 0.00, 0.00, 1.57, 1.64, 1.70
30, 7525.76, -5274.77, 2132.79, -3599.36, 0.00, 0.00, 0.00, 0.00, 1.57, 1.64, 1.70
31, 7567.88, -5356.02, 2057.47, -3502.08, 0.00, 0.00, 0.00, 0.00, 1.57, 1.64, 1.70
32, 7605.50, -5408.59, 2075.32, -3521.67, 0.00, 0.00, 0.00, 0.00, 1.57, 1.64, 1.70
33, 7593.68, -5360.31, 2259.80, -3760.52, 0.00, 0.00, 0.00, 0.00, 1.57, 1.64, 1.70
34, 7536.31, -5266.82, 2171.51, -3653.29, 0.00, 0.00, 0.00, 0.00, 1.57, 1.64, 1.70
35, 7555.41, -5320.50, 2061.02, -3519.38, 0.00, 0.00, 0.00, 0.00, 1.57, 1.64, 1.70
36, 7603.07, -5398.92, 2045.91, -3491.44, 0.00, 0.00, 0.00, 0.00, 1.57, 1.64, 1.70
37, 7608.93, -5392.13, 2218.82, -3714.16, 0.00, 0.00, 0.00, 0.00, 1.57, 1.64, 1.70
38, 7547.72, -5289.60, 2227.99, -3718.36, 0.00, 0.00, 0.00, 0.00, 1.57, 1.64, 1.70
39, 7533.24, -5296.63, 2081.46, -3539.15, 0.00, 0.00, 0.00, 0.00, 1.57, 1.64, 1.70
40, 7587.85, -5386.09, 2033.85, -3477.49, 0.00, 0.00, 0.00, 0.00, 1.57, 1.64, 1.70
41, 7606.36, -5400.45, 2158.53, -3633.09, 0.00, 0.00, 0.00, 0.00, 1.57, 1.64, 1.70
42, 7565.01, -5310.94, 2261.00, -3773.35, 0.00, 0.00, 0.00, 0.00, 1.57, 1.64, 1.70
43, 7531.64, -5281.51, 2112.06, -3578.50, 0.00, 0.00, 0.00, 0.00, 1.57, 1.64, 1.70
44, 7583.75, -5375.35, 2050.45, -3500.85, 0.00, 0.00, 0.00, 0.00, 1.57, 1.64, 1.70
45, 7612.23, -5411.69, 2109.35, -3569.05, 0.00, 0.00, 0.00, 0.00, 1.57, 1.64, 1.70
46, 7588.56, -5344.92, 2277.52, -3782.79, 0.00, 0.00, 0.00, 0.00, 1.57, 1.64, 1.70
47, 7542.67, -5275.10, 2144.35, -3623.29, 0.00, 0.00, 0.00, 0.00, 1.57, 1.64, 1.70
48, 7567.69, -5353.81, 2060.25, -3514.79, 0.00, 0.00, 0.00, 0.00, 1.57, 1.64, 1.70
49, 7614.10, -5411.52, 2072.17, -3516.81, 0.00, 0.00, 0.00, 0.00, 1.57, 1.64, 1.70
50, 7604.36, -5379.23, 2251.76, -3763.33, 0.00, 0.00, 0.00, 0.00, 1.57, 1.64, 1.70
51, 7532.48, -5274.63, 2182.77, -3668.30, 0.00, 0.00, 0.00, 0.00, 1.57, 1.64, 1.70
52, 7545.47, -5321.63, 2072.31, -3531.80, 0.00, 0.00, 0.00, 0.00, 1.57, 1.64, 1.70
53, 7600.14, -5400.30, 2047.30, -3483.21, 0.00, 0.00, 0.00, 0.00, 1.57, 1.64, 1.70
54, 7611.98, -5397.81, 2205.44, -3695.46, 0.00, 0.00, 0.00, 0.00, 1.57, 1.64, 1.70
55, 7556.08, -5293.69, 2238.59, -3738.16, 0.00, 0.00, 0.00, 0.00, 1.57, 1.64, 1.70
56, 7532.74, -5295.89, 2087.57, -3548.59, 0.00, 0.00, 0.00, 0.00, 1.57, 1.64, 1.70
57, 7596.93, -5397.17, 2054.02, -3497.21, 0.00, 0.00, 0.00, 0.00, 1.57, 1.64, 1.70
58, 7614.75, -5408.35, 2146.60, -3613.13, 0.00, 0.00, 0.00, 0.00, 1.57, 1.64, 1.70
59, 7573.08, -5319.75, 2264.34, -3780.98, 0.00, 0.00, 0.00, 0.00, 1.57, 1.64, 1.70
60, 7532.97, -5282.12, 2110.17, -3582.43, 0.00, 0.00, 0.00, 0.00, 1.57, 1.64, 1.70
61, 7575.11, -5375.41, 2056.12, -3505.83, 0.00, 0.00, 0.00, 0.00, 1.57, 1.64, 1.70
62, 7617.82, -5410.99, 2101.97, -3550.35, 0.00, 0.00, 0.00, 0.00, 1.57, 1.64, 1.70
63, 7595.57, -5354.66, 2273.51, -3779.58, 0.00, 0.00, 0.00, 0.00, 1.57, 1.64, 1.70
64, 7530.27, -5289.08, 2148.28, -3630.77, 0.00, 0.00, 0.00, 0.00, 1.57, 1.64, 1.70
65, 7555.59, -5343.92, 2061.57, -3514.00, 0.00, 0.00, 0.00, 0.00, 1.57, 1.64, 1.70
66, 7600.53, -5417.90, 2061.44, -3507.35, 0.00, 0.00, 0.00, 0.00, 1.57, 1.64, 1.70
67, 7606.50, -5384.77, 2242.97, -3751.79, 0.00, 0.00, 0.00, 0.00, 1.57, 1.64, 1.70
68, 7542.58, -5285.56, 2201.82, -3693.58, 0.00, 0.00, 0.00, 0.00, 1.57, 1.64, 1.70
69, 7544.72, -5321.68, 2075.29, -3533.25, 0.00, 0.00, 0.00, 0.00, 1.57, 1.64, 1.70
70, 7597.17, -5403.70, 2046.15, -3490.74, 0.00, 0.00, 0.00, 0.00, 1.57, 1.64, 1.70
71, 7607.15, -5397.45, 2182.62, -3662.75, 0.00, 0.00, 0.00, 0.00, 1.57, 1.64, 1.70
72, 7542.64, -5294.79, 2246.13, -3746.32, 0.00, 0.00, 0.00, 0.00, 1.57, 1.64, 1.70
73, 7521.61, -5295.36, 2089.16, -3549.08, 0.00, 0.00, 0.00, 0.00, 1.57, 1.64, 1.70
74, 7585.99, -5386.78, 2052.21, -3491.84, 0.00, 0.00, 0.00, 0.00, 1.57, 1.64, 1.70
75, 7608.28, -5406.39, 2126.62, -3593.44, 0.00, 0.00, 0.00, 0.00, 1.57, 1.64, 1.70
76, 7576.25, -5339.24, 2276.06, -3789.07, 0.00, 0.00, 0.00, 0.00, 1.57, 1.64, 1.70
77, 7519.25, -5272.21, 2113.49, -3581.53, 0.00, 0.00, 0.00, 0.00, 1.57, 1.64, 1.70
78, 7571.78, -5360.42, 2053.75, -3508.55, 0.00, 0.00, 0.00, 0.00, 1.57, 1.64, 1.70
79, 7603.42, -5411.51, 2084.92, -3538.95, 0.00, 0.00, 0.00, 0.00, 1.57, 1.64, 1.70
80, 7586.50, -5355.45, 2270.14, -3775.33, 0.00, 0.00, 0.00, 0.00, 1.57, 1.64, 1.70
81, 7523.72, -5271.42, 2160.29, -3642.29, 0.00, 0.00, 0.00, 0.00, 1.57, 1.64, 1.70
82, 7553.47, -5334.26, 2061.40, -3512.95, 0.00, 0.00, 0.00, 0.00, 1.57, 1.64, 1.70
83, 7596.59, -5397.55, 2053.29, -3493.28, 0.00, 0.00, 0.00, 0.00, 1.57, 1.64, 1.70
84, 7602.48, -5383.40, 2226.52, -3714.80, 0.00, 0.00, 0.00, 0.00, 1.57, 1.64, 1.70
85, 7537.49, -5278.85, 2213.07, -3708.60, 0.00, 0.00, 0.00, 0.00, 1.57, 1.64, 1.70
86, 7530.11, -5302.32, 2078.09, -3527.26, 0.00, 0.00, 0.00, 0.00, 1.57, 1.64, 1.70
87, 7587.15, -5393.45, 2042.24, -3481.50, 0.00, 0.00, 0.00, 0.00, 1.57, 1.64, 1.70
88, 7614.62, -5402.89, 2173.76, -3649.38, 0.00, 0.00, 0.00, 0.00, 1.57, 1.64, 1.70
89, 7569.48, -5310.69, 2263.67, -3776.61, 0.00, 0.00, 0.00, 0.00, 1.57, 1.64, 1.70
90, 7527.63, -5286.17, 2099.88, -3562.38, 0.00, 0.00, 0.00, 0.00, 1.57, 1.64, 1.70
91, 7574.66, -5373.62, 2044.93, -3495.70, 0.00, 0.00, 0.00, 0.00, 1.57, 1.64, 1.70
92, 7607.28, -5404.63, 2114.65, -3571.84, 0.00, 0.00, 0.00, 0.00, 1.57, 1.64, 1.70
93, 7577.54, -5341.37, 2271.75, -3780.78, 0.00, 0.00, 0.00, 0.00, 1.57, 1.64, 1.70
94, 7519.29, -5278.92, 2129.13, -3604.82, 0.00, 0.00, 0.00, 0.00, 1.57, 1.64, 1.70
95, 7558.93, -5350.49, 2050.84, -3503.98, 0.00, 0.00, 0.00, 0.00, 1.57, 1.64, 1.70
96, 7601.58, -5397.10, 2065.14, -3512.64, 0.00, 0.00, 0.00, 0.00, 1.57, 1.64, 1.70
97, 7589.98, -5353.07, 2250.71, -3754.83, 0.00, 0.00, 0.00, 0.00, 1.57, 1.64, 1.70
98, 7533.49, -5272.16, 2171.77, -3656.98, 0.00, 0.00, 0.00, 0.00, 1.57, 1.64, 1.70
99, 7552.47, -5322.47, 2063.38, -3514.58, 0.00, 0.00, 0.00, 0.00, 1.57, 1.64, 1.70
100, 7603.52, -5398.19, 2047.20, -3498.12, 0.00, 0.00, 0.00, 0.00, 1.57, 1.64, 1.70
101, 7608.94, -5401.04, 2226.17, -3719.02, 0.00, 0.00, 0.00, 0.00, 1.57, 1.64, 1.70
102, 7548.26, -5297.02, 2231.65, -3722.81, 0.00, 0.00, 0.00, 0.00, 1.57, 1.64, 1.70
103, 7538.42, -5305.18, 2085.43, -3542.27, 0.00, 0.00, 0.00, 0.00, 1.57, 1.64, 1.70
104, 7586.98, -5388.43, 2042.96, -3486.87, 0.00, 0.00, 0.00, 0.00, 1.57, 1.64, 1.70
105, 7606.71, -5401.09, 2148.79, -3623.52, 0.00, 0.00, 0.00, 0.00, 1.57, 1.64, 1.70
106, 7562.89, -5313.19, 2263.71, -3770.86, 0.00, 0.00, 0.00, 0.00, 1.57, 1.64, 1.70
107, 7526.30, -5280.60, 2103.26, -3573.77, 0.00, 0.00, 0.00, 0.00, 1.57, 1.64, 1.70
108, 7574.41, -5363.72, 2044.15, -3491.77, 0.00, 0.00, 0.00, 0.00, 1.57, 1.64, 1.70
109, 7606.16, -5403.38, 2095.93, -3559.04, 0.00, 0.00, 0.00, 0.00, 1.57, 1.64, 1.70
110, 7586.49, -5343.26, 2272.66, -3790.34, 0.00, 0.00, 0.00, 0.00, 1.57, 1.64, 1.70
111, 7525.32, -5271.31, 2141.64, -3619.20, 0.00, 0.00, 0.00, 0.00, 1.57, 1.64, 1.70
112, 7563.19, -5349.03, 2058.90, -3516.40, 0.00, 0.00, 0.00, 0.00, 1.57, 1.64, 1.70
113, 7611.63, -5412.57, 2070.34, -3512.45, 0.00, 0.00, 0.00, 0.00, 1.57, 1.64, 1.70
114, 7611.92, -5379.85, 2252.65, -3761.33, 0.00, 0.00, 0.00, 0.00, 1.57, 1.64, 1.70
115, 7543.73, -5286.78, 2192.52, -3679.88, 0.00, 0.00, 0.00, 0.00, 1.57, 1.64, 1.70
116, 7548.33, -5330.21, 2073.70, -3530.72, 0.00, 0.00, 0.00, 0.00, 1.57, 1.64, 1.70
117, 7597.12, -5401.32, 2051.81, -3492.97, 0.00, 0.00, 0.00, 0.00, 1.57, 1.64, 1.70
118, 7611.30, -5397.16, 2205.37, -3692.44, 0.00, 0.00, 0.00, 0.00, 1.57, 1.64, 1.70
119, 7548.59, -5289.55, 2239.58, -3735.47, 0.00, 0.00, 0.00, 0.00, 1.57, 1.64, 1.70
120, 7525.20, -5288.26, 2081.94, -3547.49, 0.00, 0.00, 0.00, 0.00, 1.57, 1.64, 1.70
121, 7581.99, -5381.99, 2043.25, -3487.25, 0.00, 0.00, 0.00, 0.00, 1.57, 1.64, 1.70
122, 7608.49, -5400.55, 2133.27, -3601.79, 0.00, 0.00, 0.00, 0.00, 1.57, 1.64, 1.70
123, 7574.72, -5313.38, 2262.02, -3773.59, 0.00, 0.00, 0.00, 0.00, 1.57, 1.64, 1.70
124, 7519.07, -5269.31, 2098.65, -3574.19, 0.00, 0.00, 0.00, 0.00, 1.57, 1.64, 1.70
125, 7562.72, -5359.10, 2046.08, -3501.57, 0.00, 0.00, 0.00, 0.00, 1.57, 1.64, 1.70
126, 7597.97, -5397.01, 2084.50, -3541.37, 0.00, 0.00, 0.00, 0.00, 1.57, 1.64, 1.70
127, 7585.12, -5342.43, 2262.08, -3765.83, 0.00, 0.00, 0.00, 0.00, 1.57, 1.64, 1.70
128, 7524.90, -5263.06, 2143.75, -3627.01, 0.00, 0.00, 0.00, 0.00, 1.57, 1.64, 1.70
129, 7553.34, -5337.45, 2054.84, -3516.99, 0.00, 0.00, 0.00, 0.00, 1.57, 1.64, 1.70
130, 7602.92, -5396.13, 2053.24, -3503.64, 0.00, 0.00, 0.00, 0.00, 1.57, 1.64, 1.70
131, 7597.23, -5374.65, 2230.36, -3734.09, 0.00, 0.00, 0.00, 0.00, 1.57, 1.64, 1.70
132, 7536.41, -5271.19, 2195.52, -3687.12, 0.00, 0.00, 0.00, 0.00, 1.57, 1.64, 1.70
133, 7532.24, -5296.44, 2059.62, -3515.23, 0.00, 0.00, 0.00, 0.00, 1.57, 1.64, 1.70
134, 7588.62, -5391.04, 2043.57, -3483.88, 0.00, 0.00, 0.00, 0.00, 1.57, 1.64, 1.70
135, 7608.40, -5382.26, 2173.35, -3661.29, 0.00, 0.00, 0.00, 0.00, 1.57, 1.64, 1.70
136, 7559.13, -5284.74, 2236.83, -3749.07, 0.00, 0.00, 0.00, 0.00, 1.57, 1.64, 1.70
137, 7525.31, -5277.38, 2090.75, -3558.03, 0.00, 0.00, 0.00, 0.00, 1.57, 1.64, 1.70
138, 7580.33, -5382.57, 2046.23, -3493.28, 0.00, 0.00, 0.00, 0.00, 1.57, 1.64, 1.70
139, 7606.39, -5394.56, 2119.92, -3580.64, 0.00, 0.00, 0.00, 0.00, 1.57, 1.64, 1.70
140, 7573.14, -5322.97, 2264.07, -3775.87, 0.00, 0.00, 0.00, 0.00, 1.57, 1.64, 1.70
141, 7518.07, -5259.76, 2110.26, -3585.78, 0.00, 0.00, 0.00, 0.00, 1.57, 1.64, 1.70
142, 7564.45, -5347.77, 2048.48, -3504.82, 0.00, 0.00, 0.00, 0.00, 1.57, 1.64, 1.70
143, 7597.82, -5392.52, 2064.90, -3525.19, 0.00, 0.00, 0.00, 0.00, 1.57, 1.64, 1.70
144, 7587.22, -5351.90, 2252.26, -3766.27, 0.00, 0.00, 0.00, 0.00, 1.57, 1.64, 1.70
145, 7529.93, -5266.39, 2153.43, -3633.08, 0.00, 0.00, 0.00, 0.00, 1.57, 1.64, 1.70
146, 7551.85, -5325.81, 2059.39, -3519.77, 0.00, 0.00, 0.00, 0.00, 1.57, 1.64, 1.70
147, 7596.96, -5389.03, 2053.78, -3499.97, 0.00, 0.00, 0.00, 0.00, 1.57, 1.64, 1.70
148, 7603.26, -5366.86, 2213.22, -3710.25, 0.00, 0.00, 0.00, 0.00, 1.57, 1.64, 1.70
149, 7544.38, -5266.44, 2194.51, -3699.16, 0.00, 0.00, 0.00, 0.00, 1.57, 1.64, 1.70
150, 7534.25, -5294.99, 2071.80, -3534.42, 0.00, 0.00, 0.00, 0.00, 1.57, 1.64, 1.70
151, 7584.58, -5375.28, 2039.98, -3483.94, 0.00, 0.00, 0.00, 0.00, 1.57, 1.64, 1.70
152, 7600.68, -5385.94, 2158.60, -3637.70, 0.00, 0.00, 0.00, 0.00, 1.57, 1.64, 1.70
153, 7559.21, -5303.22, 2240.39, -3754.57, 0.00, 0.00, 0.00, 0.00, 1.57, 1.64, 1.70
154, 7524.82, -5283.22, 2091.30, -3562.18, 0.00, 0.00, 0.00, 0.00, 1.57, 1.64, 1.70
155, 7569.88, -5355.99, 2039.82, -3492.91, 0.00, 0.00, 0.00, 0.00, 1.57, 1.64, 1.70
156, 7597.29, -5381.71, 2095.98, -3564.44, 0.00, 0.00, 0.00, 0.00, 1.57, 1.64, 1.70
157, 7571.55, -5320.49, 2258.75, -3771.71, 0.00, 0.00, 0.00, 0.00, 1.57, 1.64, 1.70
158, 7522.27, -5256.75, 2125.82, -3599.61, 0.00, 0.00, 0.00, 0.00, 1.57, 1.64, 1.70
159, 7561.94, -5335.65, 2055.14, -3514.75, 0.00, 0.00, 0.00, 0.00, 1.57, 1.64, 1.70
160, 7598.09, -5388.78, 2055.25, -3509.67, 0.00, 0.00, 0.00, 0.00, 1.57, 1.64, 1.70
161, 7592.98, -5353.18, 2241.37, -3748.22, 0.00, 0.00, 0.00, 0.00, 1.57, 1.64, 1.70
162, 7524.65, -5257.79, 2157.55, -3636.22, 0.00, 0.00, 0.00, 0.00, 1.57, 1.64, 1.70
163, 7542.85, -5304.43, 2058.45, -3511.38, 0.00, 0.00, 0.00, 0.00, 1.57, 1.64, 1.70
164, 7601.89, -5378.44, 2048.47, -3495.02, 0.00, 0.00, 0.00, 0.00, 1.57, 1.64, 1.70
165, 7603.90, -5369.31, 2199.03, -3696.06, 0.00, 0.00, 0.00, 0.00, 1.57, 1.64, 1.70
166, 7542.63, -5278.01, 2212.56, -3717.62, 0.00, 0.00, 0.00, 0.00, 1.57, 1.64, 1.70
167, 7532.87, -5299.31, 2082.27, -3547.44, 0.00, 0.00, 0.00, 0.00, 1.57, 1.64, 1.70
168, 7579.28, -5370.86, 2044.95, -3503.29, 0.00, 0.00, 0.00, 0.00, 1.57, 1.64, 1.70
169, 7599.03, -5375.47, 2140.87, -3619.97, 0.00, 0.00, 0.00, 0.00, 1.57, 1.64, 1.70
170, 7551.69, -5290.18, 2228.12, -3736.99, 0.00, 0.00, 0.00, 0.00, 1.57, 1.64, 1.70
171, 7526.47, -5262.75, 2096.32, -3565.41, 0.00, 0.00, 0.00, 0.00, 1.57, 1.64, 1.70
172, 7580.21, -5353.95, 2054.99, -3512.07, 0.00, 0.00, 0.00, 0.00, 1.57, 1.64, 1.70
173, 7602.85, -5379.78, 2098.53, -3562.29, 0.00, 0.00, 0.00, 0.00, 1.57, 1.64, 1.70
174, 7571.47, -5312.32, 2227.22, -3734.87, 0.00, 0.00, 0.00, 0.00, 1.57, 1.64, 1.70
175, 7521.98, -5256.84, 2119.49, -3603.62, 0.00, 0.00, 0.00, 0.00, 1.57, 1.64, 1.70
176, 7562.83, -5337.99, 2054.48, -3516.72, 0.00, 0.00, 0.00, 0.00, 1.57, 1.64, 1.70
177, 7593.18, -5381.95, 2074.27, -3528.24, 0.00, 0.00, 0.00, 0.00, 1.57, 1.64, 1.70
178, 7583.32, -5336.53, 2212.80, -3714.87, 0.00, 0.00, 0.00, 0.00, 1.57, 1.64, 1.70
179, 7522.97, -5257.91, 2147.46, -3641.18, 0.00, 0.00, 0.00, 0.00, 1.57, 1.64, 1.70
180, 7536.91, -5298.20, 2063.68, -3518.52, 0.00, 0.00, 0.00, 0.00, 1.57, 1.64, 1.70
181, 7599.82, -5371.60, 2058.82, -3513.64, 0.00, 0.00, 0.00, 0.00, 1.57, 1.64, 1.70
182, 7605.94, -5364.00, 2176.59, -3670.36, 0.00, 0.00, 0.00, 0.00, 1.57, 1.64, 1.70
183, 7549.35, -5277.54, 2198.39, -3702.12, 0.00, 0.00, 0.00, 0.00, 1.57, 1.64, 1.70
184, 7529.41, -5275.40, 2075.97, -3543.34, 0.00, 0.00, 0.00, 0.00, 1.57, 1.64, 1.70
185, 7588.03, -5369.70, 2060.39, -3514.46, 0.00, 0.00, 0.00, 0.00, 1.57, 1.64, 1.70
186, 7597.67, -5372.09, 2138.78, -3613.00, 0.00, 0.00, 0.00, 0.00, 1.57, 1.64, 1.70
187, 7553.38, -5291.94, 2220.59, -3722.95, 0.00, 0.00, 0.00, 0.00, 1.57, 1.64, 1.70
188, 7518.67, -5262.13, 2096.38, -3568.23, 0.00, 0.00, 0.00, 0.00, 1.57, 1.64, 1.70
189, 7574.35, -5360.87, 2074.79, -3527.97, 0.00, 0.00, 0.00, 0.00, 1.57, 1.64, 1.70
190, 7601.63, -5383.25, 2097.46, -3560.84, 0.00, 0.00, 0.00, 0.00, 1.57, 1.64, 1.70
191, 7580.40, -5324.24, 2222.32, -3724.87, 0.00, 0.00, 0.00, 0.00, 1.57, 1.64, 1.70
192, 7524.55, -5248.68, 2116.85, -3599.72, 0.00, 0.00, 0.00, 0.00, 1.57, 1.64, 1.70
193, 7556.92, -5315.10, 2060.67, -3522.26, 0.00, 0.00, 0.00, 0.00, 1.57, 1.64, 1.70
194, 7602.88, -5372.66, 2065.35, -3529.16, 0.00, 0.00, 0.00, 0.00, 1.57, 1.64, 1.70
195, 7586.33, -5357.62, 2203.54, -3700.41, 0.00, 0.00, 0.00, 0.00, 1.57, 1.64, 1.70
196, 7535.53, -5261.35, 2166.18, -3650.89, 0.00, 0.00, 0.00, 0.00, 1.57, 1.64, 1.70
197, 7543.44, -5292.96, 2072.25, -3531.79, 0.00, 0.00, 0.00, 0.00, 1.57, 1.64, 1.70
198, 7597.41, -5370.62, 2066.74, -3522.93, 0.00, 0.00, 0.00, 0.00, 1.57, 1.64, 1.70
199, 7589.72, -5350.07, 2152.28, -3642.54, 0.00, 0.00, 0.00, 0.00, 1.57, 1.64, 1.70
200, 7534.35, -5266.60, 2188.27, -3685.46, 0.00, 0.00, 0.00, 0.00, 1.57, 1.64, 1.70
201, 7525.03, -5271.12, 2076.41, -3545.27, 0.00, 0.00, 0.00, 0.00, 1.57, 1.64, 1.70
202, 7584.97, -5354.91, 2065.89, -3525.84, 0.00, 0.00, 0.00, 0.00, 1.57, 1.64, 1.70
203, 7594.81, -5363.80, 2121.29, -3587.25, 0.00, 0.00, 0.00, 0.00, 1.57, 1.64, 1.70
204, 7559.75, -5304.20, 2212.68, -3718.53, 0.00, 0.00, 0.00, 0.00, 1.57, 1.64, 1.70
205, 7526.13, -5260.21, 2103.32, -3579.75, 0.00, 0.00, 0.00, 0.00, 1.57, 1.64, 1.70
206, 7578.29, -5348.59, 2070.01, -3526.50, 0.00, 0.00, 0.00, 0.00, 1.57, 1.64, 1.70
207, 7606.84, -5380.58, 2092.44, -3564.98, 0.00, 0.00, 0.00, 0.00, 1.57, 1.64, 1.70
208, 7576.61, -5317.06, 2204.87, -3704.24, 0.00, 0.00, 0.00, 0.00, 1.57, 1.64, 1.70
209, 7531.80, -5256.38, 2127.31, -3612.66, 0.00, 0.00, 0.00, 0.00, 1.57, 1.64, 1.70
210, 7559.20, -5313.44, 2072.42, -3537.90, 0.00, 0.00, 0.00, 0.00, 1.57, 1.64, 1.70
211, 7600.80, -5363.63, 2069.75, -3522.91, 0.00, 0.00, 0.00, 0.00, 1.57, 1.64, 1.70
212, 7591.78, -5351.35, 2181.20, -3682.59, 0.00, 0.00, 0.00, 0.00, 1.57, 1.64, 1.70
213, 7536.39, -5252.42, 2162.60, -3647.11, 0.00, 0.00, 0.00, 0.00, 1.57, 1.64, 1.70
214, 7546.59, -5282.81, 2081.74, -3545.36, 0.00, 0.00, 0.00, 0.00, 1.57, 1.64, 1.70
215, 7594.52, -5358.22, 2065.37, -3526.51, 0.00, 0.00, 0.00, 0.00, 1.57, 1.64, 1.70
216, 7597.90, -5350.02, 2151.14, -3633.41, 0.00, 0.00, 0.00, 0.00, 1.57, 1.64, 1.70
217, 7554.84, -5270.78, 2191.66, -3689.59, 0.00, 0.00, 0.00, 0.00, 1.57, 1.64, 1.70
218, 7542.84, -5270.21, 2092.89, -3557.78, 0.00, 0.00, 0.00, 0.00, 1.57, 1.64, 1.70
219, 7585.52, -5350.28, 2077.81, -3535.43, 0.00, 0.00, 0.00, 0.00, 1.57, 1.64, 1.70
220, 7611.38, -5370.78, 2132.71, -3594.40, 0.00, 0.00, 0.00, 0.00, 1.57, 1.64, 1.70
221, 7568.45, -5294.28, 2211.70, -3704.03, 0.00, 0.00, 0.00, 0.00, 1.57, 1.64, 1.70
222, 7517.12, -5250.02, 2105.86, -3573.86, 0.00, 0.00, 0.00, 0.00, 1.57, 1.64, 1.70
223, 7556.43, -5321.77, 2066.93, -3526.87, 0.00, 0.00, 0.00, 0.00, 1.57, 1.64, 1.70
224, 7596.70, -5360.61, 2094.67, -3550.89, 0.00, 0.00, 0.00, 0.00, 1.57, 1.64, 1.70
225, 7583.86, -5320.59, 2203.63, -3708.00, 0.00, 0.00, 0.00, 0.00, 1.57, 1.64, 1.70
226, 7530.69, -5250.09, 2134.34, -3615.91, 0.00, 0.00, 0.00, 0.00, 1.57, 1.64, 1.70
227, 7557.97, -5301.84, 2076.07, -3536.11, 0.00, 0.00, 0.00, 0.00, 1.57, 1.64, 1.70
228, 7597.77, -5360.52, 2081.32, -3538.81, 0.00, 0.00, 0.00, 0.00, 1.57, 1.64, 1.70
229, 7589.44, -5340.77, 2177.94, -3667.78, 0.00, 0.00, 0.00, 0.00, 1.57, 1.64, 1.70
230, 7540.76, -5278.02, 2180.96, -3663.54, 0.00, 0.00, 0.00, 0.00, 1.57, 1.64, 1.70
231, 7550.03, -5293.65, 2083.18, -3541.85, 0.00, 0.00, 0.00, 0.00, 1.57, 1.64, 1.70
232, 7595.77, -5355.87, 2075.90, -3532.60, 0.00, 0.00, 0.00, 0.00, 1.57, 1.64, 1.70
233, 7597.78, -5351.79, 2142.15, -3618.67, 0.00, 0.00, 0.00, 0.00, 1.57, 1.64, 1.70
234, 7550.10, -5274.29, 2192.11, -3690.23, 0.00, 0.00, 0.00, 0.00, 1.57, 1.64, 1.70
235, 7533.38, -5258.27, 2092.46, -3564.83, 0.00, 0.00, 0.00, 0.00, 1.57, 1.64, 1.70
236, 7583.17, -5339.01, 2071.85, -3532.58, 0.00, 0.00, 0.00, 0.00, 1.57, 1.64, 1.70
237, 7602.51, -5357.61, 2115.12, -3582.77, 0.00, 0.00, 0.00, 0.00, 1.57, 1.64, 1.70
238, 7561.34, -5294.16, 2199.80, -3698.07, 0.00, 0.00, 0.00, 0.00, 1.57, 1.64, 1.70
239, 7519.81, -5239.27, 2110.83, -3576.25, 0.00, 0.00, 0.00, 0.00, 1.57, 1.64, 1.70
240, 7548.54, -5308.69, 2065.32, -3524.85, 0.00, 0.00, 0.00, 0.00, 1.57, 1.64, 1.70
241, 7586.37, -5351.91, 2077.71, -3539.01, 0.00, 0.00, 0.00, 0.00, 1.57, 1.64, 1.70
242, 7571.47, -5310.25, 2189.54, -3676.04, 0.00, 0.00, 0.00, 0.00, 1.57, 1.64, 1.70
243, 7521.99, -5242.55, 2137.68, -3617.22, 0.00, 0.00, 0.00, 0.00, 1.57, 1.64, 1.70
244, 7549.57, -5300.87, 2075.92, -3534.32, 0.00, 0.00, 0.00, 0.00, 1.57, 1.64, 1.70
245, 7596.02, -5373.34, 2085.36, -3541.62, 0.00, 0.00, 0.00, 0.00, 1.57, 1.64, 1.70
246, 7598.56, -5339.94, 2171.08, -3647.98, 0.00, 0.00, 0.00, 0.00, 1.57, 1.64, 1.70
247, 7546.01, -5258.58, 2183.56, -3670.52, 0.00, 0.00, 0.00, 0.00, 1.57, 1.64, 1.70
248, 7531.34, -5273.13, 2092.16, -3557.19, 0.00, 0.00, 0.00, 0.00, 1.57, 1.64, 1.70
249, 7574.44, -5350.20, 2071.33, -3523.76, 0.00, 0.00, 0.00, 0.00, 1.57, 1.64, 1.70
250, 7591.48, -5346.40, 2127.61, -3596.59, 0.00, 0.00, 0.00, 0.00, 1.57, 1.64, 1.70
251, 7550.18, -5270.58, 2192.16, -3688.51, 0.00, 0.00, 0.00, 0.00, 1.57, 1.64, 1.70
252, 7524.14, -5250.24, 2096.44, -3567.46, 0.00, 0.00, 0.00, 0.00, 1.57, 1.64, 1.70
253, 7574.90, -5332.68, 2075.67, -3535.00, 0.00, 0.00, 0.00, 0.00, 1.57, 1.64, 1.70
254, 7585.02, -5354.74, 2100.14, -3564.12, 0.00, 0.00, 0.00, 0.00, 1.57, 1.64, 1.70
255, 7564.01, -5288.24, 2194.81, -3697.06, 0.00, 0.00, 0.00, 0.00, 1.57, 1.64, 1.70
0, 7524.07, -5240.97, 2116.33, -3594.82, 0.00, 0.00, 0.00, 0.00, 1.57, 1.64, 1.70
1, 7550.83, -5296.85, 2062.22, -3528.50, 0.00, 0.00, 0.00, 0.00, 1.57, 1.64, 1.70
2, 7585.80, -5341.22, 2074.77, -3530.13, 0.00, 0.00, 0.00, 0.00, 1.57, 1.64, 1.70
3, 7580.53, -5305.83, 2181.96, -3669.04, 0.00, 0.00, 0.00, 0.00, 1.57, 1.64, 1.70
4, 7532.89, -5235.16, 2144.94, -3630.00, 0.00, 0.00, 0.00, 0.00, 1.57, 1.64, 1.70
5, 7534.81, -5274.47, 2074.89, -3533.90, 0.00, 0.00, 0.00, 0.00, 1.57, 1.64, 1.70
6, 7590.09, -5346.14, 2074.23, -3528.32, 0.00, 0.00, 0.00, 0.00, 1.57, 1.64, 1.70
7, 7594.44, -5335.19, 2158.48, -3640.71, 0.00, 0.00, 0.00, 0.00, 1.57, 1.64, 1.70
8, 7543.26, -5252.54, 2174.24, -3667.99, 0.00, 0.00, 0.00, 0.00, 1.57, 1.64, 1.70
9, 7528.92, -5253.24, 2085.11, -3547.84, 0.00, 0.00, 0.00, 0.00, 1.57, 1.64, 1.70
10, 7578.42, -5333.41, 2063.08, -3525.18, 0.00, 0.00, 0.00, 0.00, 1.57, 1.64, 1.70
11, 7597.03, -5339.91, 2121.16, -3601.14, 0.00, 0.00, 0.00, 0.00, 1.57, 1.64, 1.70
12, 7563.73, -5273.71, 2194.67, -3688.74, 0.00, 0.00, 0.00, 0.00, 1.57, 1.64, 1.70
13, 7526.38, -5245.19, 2098.53, -3563.13, 0.00, 0.00, 0.00, 0.00, 1.57, 1.64, 1.70
14, 7571.43, -5334.09, 2070.94, -3540.03, 0.00, 0.00, 0.00, 0.00, 1.57, 1.64, 1.70
15, 7602.63, -5354.06, 2099.50, -3567.31, 0.00, 0.00, 0.00, 0.00, 1.57, 1.64, 1.70
16, 7576.91, -5299.21, 2189.85, -3697.31, 0.00, 0.00, 0.00, 0.00, 1.57, 1.64, 1.70
17, 7523.35, -5239.86, 2115.02, -3591.82, 0.00, 0.00, 0.00, 0.00, 1.57, 1.64, 1.70
18, 7551.04, -5295.60, 2067.92, -3536.77, 0.00, 0.00, 0.00, 0.00, 1.57, 1.64, 1.70
19, 7600.67, -5348.04, 2074.37, -3543.99, 0.00, 0.00, 0.00, 0.00, 1.57, 1.64, 1.70
20, 7587.75, -5318.63, 2172.03, -3667.59, 0.00, 0.00, 0.00, 0.00, 1.57, 1.64, 1.70
21, 7529.04, -5240.77, 2145.03, -3637.35, 0.00, 0.00, 0.00, 0.00, 1.57, 1.64, 1.70
22, 7542.71, -5267.89, 2075.20, -3542.57, 0.00, 0.00, 0.00, 0.00, 1.57, 1.64, 1.70
23, 7588.50, -5341.01, 2065.38, -3517.47, 0.00, 0.00, 0.00, 0.00, 1.57, 1.64, 1.70
24, 7591.97, -5324.33, 2140.10, -3617.64, 0.00, 0.00, 0.00, 0.00, 1.57, 1.64, 1.70
25, 7537.82, -5254.94, 2174.05, -3671.04, 0.00, 0.00, 0.00, 0.00, 1.57, 1.64, 1.70
26, 7523.13, -5240.51, 2076.72, -3549.69, 0.00, 0.00, 0.00, 0.00, 1.57, 1.64, 1.70
27, 7583.15, -5318.70, 2062.88, -3527.50, 0.00, 0.00, 0.00, 0.00, 1.57, 1.64, 1.70
28, 7600.57, -5331.66, 2111.52, -3578.62, 0.00, 0.00, 0.00, 0.00, 1.57, 1.64, 1.70
29, 7561.71, -5259.46, 2183.35, -3681.46, 0.00, 0.00, 0.00, 0.00, 1.57, 1.64, 1.70
30, 7524.82, -5219.72, 2092.95, -3563.93, 0.00, 0.00, 0.00, 0.00, 1.57, 1.64, 1.70
31, 7560.79, -5287.72, 2057.75, -3524.27, 0.00, 0.00, 0.00, 0.00, 1.57, 1.64, 1.70
32, 7591.35, -5326.74, 2077.13, -3544.08, 0.00, 0.00, 0.00, 0.00, 1.57, 1.64, 1.70
33, 7579.13, -5281.83, 2180.43, -3670.72, 0.00, 0.00, 0.00, 0.00, 1.57, 1.64, 1.70
34, 7529.31, -5223.50, 2123.63, -3600.64, 0.00, 0.00, 0.00, 0.00, 1.57, 1.64, 1.70
35, 7545.65, -5268.08, 2063.63, -3524.93, 0.00, 0.00, 0.00, 0.00, 1.57, 1.64, 1.70
36, 7598.82, -5331.84, 2073.65, -3531.90, 0.00, 0.00, 0.00, 0.00, 1.57, 1.64, 1.70
37, 7591.80, -5302.75, 2156.28, -3647.18, 0.00, 0.00, 0.00, 0.00, 1.57, 1.64, 1.70
38, 7543.37, -5234.88, 2154.71, -3650.06, 0.00, 0.00, 0.00, 0.00, 1.57, 1.64, 1.70
39, 7543.71, -5252.82, 2074.18, -3541.89, 0.00, 0.00, 0.00, 0.00, 1.57, 1.64, 1.70
40, 7596.53, -5335.05, 2067.66, -3531.66, 0.00, 0.00, 0.00, 0.00, 1.57, 1.64, 1.70
41, 7601.30, -5313.68, 2125.36, -3602.72, 0.00, 0.00, 0.00, 0.00, 1.57, 1.64, 1.70
42, 7554.16, -5233.49, 2173.85, -3677.71, 0.00, 0.00, 0.00, 0.00, 1.57, 1.64, 1.70
43, 7533.22, -5217.90, 2084.62, -3546.10, 0.00, 0.00, 0.00, 0.00, 1.57, 1.64, 1.70
44, 7581.90, -5297.94, 2057.04, -3523.78, 0.00, 0.00, 0.00, 0.00, 1.57, 1.64, 1.70
45, 7602.38, -5320.03, 2098.36, -3569.79, 0.00, 0.00, 0.00, 0.00, 1.57, 1.64, 1.70
46, 7574.45, -5266.04, 2189.91, -3693.53, 0.00, 0.00, 0.00, 0.00, 1.57, 1.64, 1.70
47, 7532.19, -5215.23, 2102.41, -3574.83, 0.00, 0.00, 0.00, 0.00, 1.57, 1.64, 1.70
48, 7570.74, -5276.80, 2064.99, -3532.16, 0.00, 0.00, 0.00, 0.00, 1.57, 1.64, 1.70
49, 7598.27, -5319.29, 2075.02, -3542.60, 0.00, 0.00, 0.00, 0.00, 1.57, 1.64, 1.70
50, 7568.94, -5295.94, 2171.50, -3666.41, 0.00, 0.00, 0.00, 0.00, 1.57, 1.64, 1.70
51, 7528.34, -5215.87, 2133.05, -3608.07, 0.00, 0.00, 0.00, 0.00, 1.57, 1.64, 1.70
52, 7543.15, -5248.63, 2060.08, -3520.88, 0.00, 0.00, 0.00, 0.00, 1.57, 1.64, 1.70
53, 7589.06, -5316.77, 2062.30, -3525.68, 0.00, 0.00, 0.00, 0.00, 1.57, 1.64, 1.70
54, 7591.90, -5304.18, 2152.11, -3637.82, 0.00, 0.00, 0.00, 0.00, 1.57, 1.64, 1.70
55, 7537.13, -5224.31, 2154.51, -3649.79, 0.00, 0.00, 0.00, 0.00, 1.57, 1.64, 1.70
56, 7535.10, -5235.31, 2066.58, -3533.64, 0.00, 0.00, 0.00, 0.00, 1.57, 1.64, 1.70
57, 7584.73, -5308.44, 2064.26, -3525.64, 0.00, 0.00, 0.00, 0.00, 1.57, 1.64, 1.70
58, 7588.50, -5305.84, 2115.67, -3596.00, 0.00, 0.00, 0.00, 0.00, 1.57, 1.64, 1.70
59, 7547.56, -5232.16, 2171.77, -3667.57, 0.00, 0.00, 0.00, 0.00, 1.57, 1.64, 1.70
60, 7521.41, -5212.41, 2080.93, -3543.48, 0.00, 0.00, 0.00, 0.00, 1.57, 1.64, 1.70
61, 7576.47, -5294.77, 2063.58, -3526.19, 0.00, 0.00, 0.00, 0.00, 1.57, 1.64, 1.70
62, 7593.00, -5312.69, 2093.26, -3557.08, 0.00, 0.00, 0.00, 0.00, 1.57, 1.64, 1.70
63, 7559.83, -5253.38, 2173.02, -3670.50, 0.00, 0.00, 0.00, 0.00, 1.57, 1.64, 1.70
64, 7522.47, -5211.86, 2102.31, -3577.75, 0.00, 0.00, 0.00, 0.00, 1.57, 1.64, 1.70
65, 7558.65, -5276.62, 2063.23, -3524.43, 0.00, 0.00, 0.00, 0.00, 1.57, 1.64, 1.70
66, 7590.83, -5297.69, 2075.02, -3533.42, 0.00, 0.00, 0.00, 0.00, 1.57, 1.64, 1.70
67, 7578.66, -5244.30, 2156.47, -3646.78, 0.00, 0.00, 0.00, 0.00, 1.57, 1.64, 1.70
68, 7530.93, -5199.89, 2137.29, -3616.42, 0.00, 0.00, 0.00, 0.00, 1.57, 1.64, 1.70
69, 7539.45, -5239.78, 2058.98, -3525.92, 0.00, 0.00, 0.00, 0.00, 1.57, 1.64, 1.70
70, 7584.10, -5309.86, 2063.10, -3518.90, 0.00, 0.00, 0.00, 0.00, 1.57, 1.64, 1.70
71, 7583.60, -5292.43, 2141.32, -3618.38, 0.00, 0.00, 0.00, 0.00, 1.57, 1.64, 1.70
72, 7537.64, -5213.40, 2156.02, -3651.14, 0.00, 0.00, 0.00, 0.00, 1.57, 1.64, 1.70
73, 7527.29, -5223.59, 2070.13, -3537.30, 0.00, 0.00, 0.00, 0.00, 1.57, 1.64, 1.70
74, 7584.03, -5311.85, 2072.66, -3530.38, 0.00, 0.00, 0.00, 0.00, 1.57, 1.64, 1.70
75, 7593.85, -5310.99, 2117.68, -3586.34, 0.00, 0.00, 0.00, 0.00, 1.57, 1.64, 1.70
76, 7561.95, -5233.46, 2174.45, -3675.20, 0.00, 0.00, 0.00, 0.00, 1.57, 1.64, 1.70
77, 7521.71, -5209.25, 2087.81, -3557.83, 0.00, 0.00, 0.00, 0.00, 1.57, 1.64, 1.70
78, 7567.42, -5295.63, 2065.39, -3528.33, 0.00, 0.00, 0.00, 0.00, 1.57, 1.64, 1.70
79, 7600.89, -5312.74, 2084.78, -3550.13, 0.00, 0.00, 0.00, 0.00, 1.57, 1.64, 1.70
80, 7581.61, -5260.73, 2175.76, -3670.84, 0.00, 0.00, 0.00, 0.00, 1.57, 1.64, 1.70
81, 7524.15, -5205.26, 2107.11, -3580.95, 0.00, 0.00, 0.00, 0.00, 1.57, 1.64, 1.70
82, 7549.07, -5266.17, 2061.50, -3523.19, 0.00, 0.00, 0.00, 0.00, 1.57, 1.64, 1.70
83, 7593.27, -5317.75, 2075.90, -3534.84, 0.00, 0.00, 0.00, 0.00, 1.57, 1.64, 1.70
84, 7580.72, -5282.68, 2157.54, -3647.70, 0.00, 0.00, 0.00, 0.00, 1.57, 1.64, 1.70
85, 7523.80, -5208.04, 2135.46, -3621.04, 0.00, 0.00, 0.00, 0.00, 1.57, 1.64, 1.70
86, 7539.46, -5247.31, 2073.78, -3528.97, 0.00, 0.00, 0.00, 0.00, 1.57, 1.64, 1.70
87, 7589.05, -5323.84, 2065.55, -3530.72, 0.00, 0.00, 0.00, 0.00, 1.57, 1.64, 1.70
88, 7595.71, -5311.64, 2138.42, -3621.22, 0.00, 0.00, 0.00, 0.00, 1.57, 1.64, 1.70
89, 7544.48, -5237.61, 2169.01, -3661.97, 0.00, 0.00, 0.00, 0.00, 1.57, 1.64, 1.70
90, 7528.52, -5220.18, 2071.78, -3539.90, 0.00, 0.00, 0.00, 0.00, 1.57, 1.64, 1.70
91, 7589.40, -5302.10, 2068.63, -3532.56, 0.00, 0.00, 0.00, 0.00, 1.57, 1.64, 1.70
92, 7602.29, -5313.07, 2110.67, -3585.86, 0.00, 0.00, 0.00, 0.00, 1.57, 1.64, 1.70
93, 7554.33, -5242.47, 2177.10, -3670.02, 0.00, 0.00, 0.00, 0.00, 1.57, 1.64, 1.70
94, 7522.30, -5206.04, 2090.41, -3554.70, 0.00, 0.00, 0.00, 0.00, 1.57, 1.64, 1.70
95, 7567.84, -5285.91, 2065.21, -3527.58, 0.00, 0.00, 0.00, 0.00, 1.57, 1.64, 1.70
96, 7606.43, -5323.99, 2083.06, -3544.45, 0.00, 0.00, 0.00, 0.00, 1.57, 1.64, 1.70
97, 7579.08, -5270.87, 2175.44, -3668.99, 0.00, 0.00, 0.00, 0.00, 1.57, 1.64, 1.70
98, 7525.27, -5196.72, 2106.14, -3584.78, 0.00, 0.00, 0.00, 0.00, 1.57, 1.64, 1.70
99, 7547.54, -5252.30, 2058.76, -3524.03, 0.00, 0.00, 0.00, 0.00, 1.57, 1.64, 1.70
100, 7598.13, -5326.94, 2081.20, -3538.98, 0.00, 0.00, 0.00, 0.00, 1.57, 1.64, 1.70
101, 7593.10, -5305.14, 2161.76, -3645.30, 0.00, 0.00, 0.00, 0.00, 1.57, 1.64, 1.70
102, 7534.02, -5220.41, 2147.34, -3633.31, 0.00, 0.00, 0.00, 0.00, 1.57, 1.64, 1.70
103, 7532.90, -5231.19, 2068.74, -3531.14, 0.00, 0.00, 0.00, 0.00, 1.57, 1.64, 1.70
104, 7583.47, -5306.75, 2061.84, -3525.31, 0.00, 0.00, 0.00, 0.00, 1.57, 1.64, 1.70
105, 7591.64, -5301.95, 2126.79, -3609.72, 0.00, 0.00, 0.00, 0.00, 1.57, 1.64, 1.70
106, 7550.92, -5233.12, 2177.04, -3669.75, 0.00, 0.00, 0.00, 0.00, 1.57, 1.64, 1.70
107, 7528.80, -5222.46, 2077.64, -3549.66, 0.00, 0.00, 0.00, 0.00, 1.57, 1.64, 1.70
108, 7573.96, -5299.96, 2061.08, -3527.12, 0.00, 0.00, 0.00, 0.00, 1.57, 1.64, 1.70
109, 7599.73, -5318.59, 2107.15, -3571.72, 0.00, 0.00, 0.00, 0.00, 1.57, 1.64, 1.70
110, 7562.74, -5241.94, 2177.14, -3675.34, 0.00, 0.00, 0.00, 0.00, 1.57, 1.64, 1.70
111, 7530.61, -5208.78, 2101.30, -3578.36, 0.00, 0.00, 0.00, 0.00, 1.57, 1.64, 1.70
112, 7560.01, -5275.46, 2063.57, -3524.64, 0.00, 0.00, 0.00, 0.00, 1.57, 1.64, 1.70
113, 7599.40, -5313.55, 2077.07, -3540.28, 0.00, 0.00, 0.00, 0.00, 1.57, 1.64, 1.70
114, 7582.49, -5281.87, 2181.67, -3673.23, 0.00, 0.00, 0.00, 0.00, 1.57, 1.64, 1.70
115, 7519.34, -5216.82, 2121.63, -3600.46, 0.00, 0.00, 0.00, 0.00, 1.57, 1.64, 1.70
116, 7540.88, -5248.40, 2053.54, -3525.13, 0.00, 0.00, 0.00, 0.00, 1.57, 1.64, 1.70
117, 7587.51, -5312.24, 2061.89, -3519.22, 0.00, 0.00, 0.00, 0.00, 1.57, 1.64, 1.70
118, 7581.19, -5293.07, 2146.41, -3622.59, 0.00, 0.00, 0.00, 0.00, 1.57, 1.64, 1.70
119, 7534.35, -5218.96, 2155.89, -3650.62, 0.00, 0.00, 0.00, 0.00, 1.57, 1.64, 1.70
120, 7521.35, -5225.98, 2065.98, -3525.80, 0.00, 0.00, 0.00, 0.00, 1.57, 1.64, 1.70
121, 7574.83, -5299.02, 2054.49, -3518.11, 0.00, 0.00, 0.00, 0.00, 1.57, 1.64, 1.70
122, 7584.27, -5302.72, 2105.75, -3578.59, 0.00, 0.00, 0.00, 0.00, 1.57, 1.64, 1.70
123, 7541.25, -5223.77, 2161.97, -3664.28, 0.00, 0.00, 0.00, 0.00, 1.57, 1.64, 1.70
124, 7519.86, -5205.70, 2075.72, -3547.24, 0.00, 0.00, 0.00, 0.00, 1.57, 1.64, 1.70
125, 7559.38, -5283.48, 2058.67, -3520.46, 0.00, 0.00, 0.00, 0.00, 1.57, 1.64, 1.70
126, 7590.18, -5313.87, 2085.72, -3555.95, 0.00, 0.00, 0.00, 0.00, 1.57, 1.64, 1.70
127, 7561.10, -5255.16, 2172.65, -3666.22, 0.00, 0.00, 0.00, 0.00, 1.57, 1.64, 1.70
128, 7520.85, -5200.63, 2094.51, -3569.75, 0.00, 0.00, 0.00, 0.00, 1.57, 1.64, 1.70
129, 7547.66, -5258.11, 2052.29, -3515.51, 0.00, 0.00, 0.00, 0.00, 1.57, 1.64, 1.70
130, 7582.25, -5307.69, 2067.89, -3529.87, 0.00, 0.00, 0.00, 0.00, 1.57, 1.64, 1.70
131, 7570.43, -5269.28, 2152.44, -3645.16, 0.00, 0.00, 0.00, 0.00, 1.57, 1.64, 1.70
132, 7514.00, -5200.82, 2116.93, -3595.59, 0.00, 0.00, 0.00, 0.00, 1.57, 1.64, 1.70
133, 7526.99, -5230.82, 2053.13, -3522.64, 0.00, 0.00, 0.00, 0.00, 1.57, 1.64, 1.70
134, 7578.86, -5307.26, 2056.75, -3521.88, 0.00, 0.00, 0.00, 0.00, 1.57, 1.64, 1.70
135, 7572.91, -5293.27, 2126.34, -3606.78, 0.00, 0.00, 0.00, 0.00, 1.57, 1.64, 1.70
136, 7530.08, -5206.45, 2149.50, -3647.41, 0.00, 0.00, 0.00, 0.00, 1.57, 1.64, 1.70
137, 7525.48, -5206.40, 2068.00, -3528.96, 0.00, 0.00, 0.00, 0.00, 1.57, 1.64, 1.70
138, 7578.31, -5294.42, 2063.19, -3523.95, 0.00, 0.00, 0.00, 0.00, 1.57, 1.64, 1.70
139, 7583.36, -5294.73, 2103.45, -3573.99, 0.00, 0.00, 0.00, 0.00, 1.57, 1.64, 1.70
140, 7550.62, -5236.21, 2163.80, -3663.08, 0.00, 0.00, 0.00, 0.00, 1.57, 1.64, 1.70
141, 7518.76, -5205.13, 2082.45, -3550.29, 0.00, 0.00, 0.00, 0.00, 1.57, 1.64, 1.70
142, 7562.68, -5279.54, 2058.18, -3522.51, 0.00, 0.00, 0.00, 0.00, 1.57, 1.64, 1.70
143, 7598.24, -5311.79, 2087.95, -3546.78, 0.00, 0.00, 0.00, 0.00, 1.57, 1.64, 1.70
144, 7575.30, -5256.82, 2172.53, -3670.76, 0.00, 0.00, 0.00, 0.00, 1.57, 1.64, 1.70
145, 7533.49, -5210.08, 2114.18, -3593.95, 0.00, 0.00, 0.00, 0.00, 1.57, 1.64, 1.70
146, 7555.72, -5257.96, 2062.04, -3525.07, 0.00, 0.00, 0.00, 0.00, 1.57, 1.64, 1.70
147, 7591.97, -5309.55, 2070.63, -3524.99, 0.00, 0.00, 0.00, 0.00, 1.57, 1.64, 1.70
148, 7581.87, -5277.77, 2154.91, -3648.81, 0.00, 0.00, 0.00, 0.00, 1.57, 1.64, 1.70
149, 7521.65, -5201.99, 2129.53, -3613.18, 0.00, 0.00, 0.00, 0.00, 1.57, 1.64, 1.70
150, 7531.19, -5233.33, 2059.87, -3527.88, 0.00, 0.00, 0.00, 0.00, 1.57, 1.64, 1.70
151, 7592.48, -5310.59, 2064.24, -3531.96, 0.00, 0.00, 0.00, 0.00, 1.57, 1.64, 1.70
152, 7585.95, -5293.24, 2123.00, -3607.38, 0.00, 0.00, 0.00, 0.00, 1.57, 1.64, 1.70
153, 7538.04, -5220.48, 2158.78, -3655.17, 0.00, 0.00, 0.00, 0.00, 1.57, 1.64, 1.70
154, 7529.40, -5206.38, 2070.27, -3540.82, 0.00, 0.00, 0.00, 0.00, 1.57, 1.64, 1.70
